LabVIEW Measurement	
Writer_Version	0.92
Reader_Version	1
Separator	Tab
Multi_Headings	Yes
X_Columns	One
Time_Pref	Absolute
Operator	LHRI
Description	This is a HULC measurement file.
Date	2010/10/18
Time	19:36:39.986
***End_of_Header***	
	
Channels	10										
Samples	1629	1629	1629	1629	1629	1629	1629	1629	1629	1629	
Date	2010/10/18	2010/10/18	2010/10/18	2010/10/18	2010/10/18	2010/10/18	2010/10/18	2010/10/18	2010/10/18	2010/10/18	
Time	19:36:56.938999	19:36:56.938999	19:36:56.938999	19:36:56.938999	19:36:56.938999	19:36:56.938999	19:36:56.938999	19:36:56.938999	19:36:56.938999	19:36:56.938999	
X_Dimension	Time	Time	Time	Time	Time	Time	Time	Time	Time	Time	
X0	2.1833120002746582E+3	2.1833120002746582E+3	2.1833120002746582E+3	2.1833120002746582E+3	2.1833120002746582E+3	2.1833120002746582E+3	2.1833120002746582E+3	2.1833120002746582E+3	2.1833120002746582E+3	2.1833120002746582E+3	
Delta_X	0.010000	0.010000	0.010000	0.010000	0.010000	0.010000	0.010000	0.010000	0.010000	0.010000	
***End_of_Header***											
X_Value	Joint Angle (Resampled)	Brachialis Motor Mount (Prime Mover) (Resampled)	Biceps (Resampled)	Brachialis (Resampled)	Brachioradialis (Resampled)	Supinator (Resampled)	Pronator Terres (Resampled)	Brachialis Motor Mount (Resampled)	Triceps Motor Mount (Resampled)	Biceps Motor Mount (Resampled)	Comment
2183.312000	-9.135653	3.951489	3.951489	3.951489	0.000000	30.000000	0.000000	3.951489	12.625440	3.929788
2183.322000	-9.135653	3.981910	3.981910	3.981910	0.000000	30.000000	0.000000	4.012331	12.428692	3.920089
2183.332000	-9.135653	3.987994	3.987994	3.987994	0.000000	30.000000	0.000000	4.000163	12.170461	3.929788
2183.342000	-9.135653	3.991037	3.991037	3.991037	0.000000	30.000000	0.000000	4.000163	11.949120	3.968582
2183.352000	-9.135653	3.990428	3.990428	3.990428	0.000000	30.000000	0.000000	3.987994	11.653999	3.842499
2183.362000	-9.135653	3.992051	3.992051	3.992051	0.000000	30.000000	0.000000	4.000163	11.383471	3.910390
2183.372000	-9.131861	3.991471	3.991471	3.991471	0.000000	30.000000	0.000000	3.987994	10.756339	3.871596
2183.382000	-9.135653	3.995600	3.995600	3.995600	0.000000	30.000000	0.000000	4.024500	10.424327	3.871596
2183.392000	-9.135653	3.997459	3.997459	3.997459	0.000000	30.000000	0.000000	4.012331	10.116909	3.871596
2183.402000	-9.125278	3.998946	3.998946	3.998946	0.000000	30.000000	0.000000	4.012331	10.116909	3.871596
2183.412000	-9.113036	4.012331	4.012331	4.012331	0.000000	30.000000	0.000000	4.085342	9.551260	3.881294
2183.422000	-9.113036	4.025717	4.025717	4.025717	0.000000	30.000000	0.000000	4.146184	9.305326	3.929788
2183.432000	-9.113036	4.046403	4.046403	4.046403	0.000000	30.000000	0.000000	4.207026	9.047095	3.890993
2183.442000	-9.113036	4.078041	4.078041	4.078041	0.000000	30.000000	0.000000	4.316542	8.887237	4.007377
2183.452000	-9.113036	4.112113	4.112113	4.112113	0.000000	30.000000	0.000000	4.328711	8.776567	4.065569
2183.462000	-9.113036	4.171738	4.171738	4.171738	0.000000	30.000000	0.000000	4.596417	8.678193	4.191652
2183.472000	-9.113036	4.244749	4.244749	4.244749	0.000000	30.000000	0.000000	4.718101	8.690490	4.240145
2183.482000	-9.113036	4.328711	4.328711	4.328711	0.000000	30.000000	0.000000	4.864123	8.665897	4.492311
2183.492000	-9.100925	4.434576	4.434576	4.434576	0.000000	30.000000	0.000000	5.070986	8.751974	4.492311
2183.502000	-9.092475	4.559911	4.559911	4.559911	0.000000	30.000000	0.000000	5.265681	8.850347	4.637791
2183.512000	-9.092475	4.701065	4.701065	4.701065	0.000000	30.000000	0.000000	5.496882	8.973314	4.812367
2183.522000	-9.082100	4.856821	4.856821	4.856821	0.000000	30.000000	0.000000	5.703745	9.206952	4.986943
2183.532000	-9.082100	5.029613	5.029613	5.029613	0.000000	30.000000	0.000000	5.934946	9.428293	5.190616
2183.542000	-9.073652	5.220658	5.220658	5.220658	0.000000	30.000000	0.000000	6.226989	9.674227	5.413685
2183.552000	-9.073652	5.433606	5.433606	5.433606	0.000000	30.000000	0.000000	6.458189	9.907865	5.588261
2183.562000	-9.054830	5.647770	5.647770	5.647770	0.000000	30.000000	0.000000	6.738063	10.178393	5.772536
2183.572000	-9.054830	5.876537	5.876537	5.876537	0.000000	30.000000	0.000000	7.005769	10.559591	6.053798
2183.582000	-9.054830	6.118689	6.118689	6.118689	0.000000	30.000000	0.000000	7.285643	10.817822	6.305963
2183.592000	-9.054830	6.370576	6.370576	6.370576	0.000000	30.000000	0.000000	7.589855	11.186724	6.558129
2183.602000	-9.053089	6.628547	6.628547	6.628547	0.000000	30.000000	0.000000	7.845392	11.543329	6.849089
2183.612000	-9.053089	6.896253	6.896253	6.896253	0.000000	30.000000	0.000000	8.173940	11.899934	7.120652
2183.622000	-9.053089	7.172477	7.172477	7.172477	0.000000	30.000000	0.000000	8.465983	12.256538	7.401914
2183.632000	-9.053089	7.456002	7.456002	7.456002	0.000000	30.000000	0.000000	8.770194	12.674627	7.741367
2183.642000	-9.053089	7.744394	7.744394	7.744394	0.000000	30.000000	0.000000	9.110910	13.043528	8.051725
2183.652000	-9.053089	8.041304	8.041304	8.041304	0.000000	30.000000	0.000000	9.427290	13.449320	8.323288
2183.662000	-9.042903	8.345515	8.345515	8.345515	0.000000	30.000000	0.000000	9.780175	13.855112	8.682139
2183.672000	-9.046698	8.655810	8.655810	8.655810	0.000000	30.000000	0.000000	10.108723	14.248607	9.002195
2183.682000	-9.046698	8.975841	8.975841	8.975841	0.000000	30.000000	0.000000	10.485945	14.703585	9.351348
2183.692000	-9.046698	9.298304	9.298304	9.298304	0.000000	30.000000	0.000000	10.814493	15.158564	9.700500
2183.702000	-9.026134	9.631720	9.631720	9.631720	0.000000	30.000000	0.000000	11.179546	15.539762	10.059351
2183.712000	-9.017693	9.970003	9.970003	9.970003	0.000000	30.000000	0.000000	11.556768	15.994741	10.369709
2183.722000	-9.009253	10.314370	10.314370	10.314370	0.000000	30.000000	0.000000	11.909653	16.425126	10.786752
2183.732000	-9.007508	10.667255	10.667255	10.667255	0.000000	30.000000	0.000000	12.299043	16.818621	11.174699
2183.742000	-8.997127	11.017706	11.017706	11.017706	0.000000	30.000000	0.000000	12.615423	17.261303	11.533550
2183.752000	-8.980357	11.368157	11.368157	11.368157	0.000000	30.000000	0.000000	12.931802	17.679391	11.892401
2183.762000	-8.980357	11.724693	11.724693	11.724693	0.000000	30.000000	0.000000	13.345530	18.134370	12.299745
2183.772000	-8.959788	12.081228	12.081228	12.081228	0.000000	30.000000	0.000000	13.674078	18.589349	12.648898
2183.782000	-8.939024	12.460884	12.460884	12.460884	0.000000	30.000000	0.000000	14.282500	19.413229	13.298709
2183.792000	-8.918450	12.836889	12.836889	12.836889	0.000000	30.000000	0.000000	14.574543	19.868208	13.609067
2183.802000	-8.879059	13.201942	13.201942	13.201942	0.000000	30.000000	0.000000	14.830080	20.347780	13.929123
2183.812000	-8.860244	13.529273	13.529273	13.529273	0.000000	30.000000	0.000000	14.830080	20.347780	13.929123
2183.822000	-8.808625	13.861472	13.861472	13.861472	0.000000	30.000000	0.000000	15.231639	21.282330	14.336468
2183.832000	-8.779623	14.165683	14.165683	14.165683	0.000000	30.000000	0.000000	15.341155	21.761902	14.520742
2183.842000	-8.726040	14.454075	14.454075	14.454075	0.000000	30.000000	0.000000	15.499345	22.229178	14.666223
2183.852000	-8.655617	14.718130	14.718130	14.718130	0.000000	30.000000	0.000000	15.572355	22.708750	14.666223
2183.862000	-8.603811	14.949331	14.949331	14.949331	0.000000	30.000000	0.000000	15.657534	23.163728	14.995978
2183.872000	-8.552197	15.150110	15.150110	15.150110	0.000000	30.000000	0.000000	15.681871	23.581817	15.005676
2183.882000	-8.438394	15.299782	15.299782	15.299782	0.000000	30.000000	0.000000	15.779219	23.987609	15.131759
2183.892000	-8.438394	15.422683	15.422683	15.422683	0.000000	30.000000	0.000000	15.803556	24.344213	15.209348
2183.902000	-8.105430	15.524898	15.524898	15.524898	0.000000	30.000000	0.000000	15.852230	24.651631	15.325733
2183.912000	-7.917390	15.633198	15.633198	15.633198	0.000000	30.000000	0.000000	15.913072	24.934456	15.432418
2183.922000	-7.855384	15.709859	15.709859	15.709859	0.000000	30.000000	0.000000	15.998251	25.131203	15.519706
2183.932000	-7.855384	15.781653	15.781653	15.781653	0.000000	30.000000	0.000000	16.059093	25.364841	15.665186
2183.942000	-7.698356	15.843712	15.843712	15.843712	0.000000	30.000000	0.000000	16.119935	25.438621	15.762173
2183.952000	-7.644715	15.909421	15.909421	15.909421	0.000000	30.000000	0.000000	16.229451	25.598479	15.878557
2183.962000	-7.611689	15.973914	15.973914	15.973914	0.000000	30.000000	0.000000	16.302462	25.647666	16.004640
2183.972000	-7.570303	16.045708	16.045708	16.045708	0.000000	30.000000	0.000000	16.399810	25.635369	16.101627
2183.982000	-7.487522	16.111418	16.111418	16.111418	0.000000	30.000000	0.000000	16.436315	25.610776	16.169517
2183.992000	-7.361498	16.181995	16.181995	16.181995	0.000000	30.000000	0.000000	16.509326	25.512402	16.266504
2184.002000	-7.307839	16.250138	16.250138	16.250138	0.000000	30.000000	0.000000	16.533663	25.401731	16.334395
2184.012000	-7.171425	16.317064	16.317064	16.317064	0.000000	30.000000	0.000000	16.582336	25.204984	16.421683
2184.022000	-7.043349	16.375473	16.375473	16.375473	0.000000	30.000000	0.000000	16.582336	25.032830	16.479875
2184.032000	-6.908818	16.427797	16.427797	16.427797	0.000000	30.000000	0.000000	16.582336	24.725412	16.557465
2184.042000	-6.813775	16.475254	16.475254	16.475254	0.000000	30.000000	0.000000	16.594505	24.454884	16.605958
2184.052000	-6.720678	16.506892	16.506892	16.506892	0.000000	30.000000	0.000000	16.545831	24.159763	16.654451
2184.062000	-6.609405	16.533663	16.533663	16.533663	0.000000	30.000000	0.000000	16.570168	23.815454	16.712643
2184.072000	-6.419376	16.550698	16.550698	16.550698	0.000000	30.000000	0.000000	16.570168	23.458850	16.741739
2184.082000	-6.359349	16.560433	16.560433	16.560433	0.000000	30.000000	0.000000	16.533663	23.077651	16.819329
2184.092000	-6.268614	16.561650	16.561650	16.561650	0.000000	30.000000	0.000000	16.521494	22.647266	16.799931
2184.102000	-6.189926	16.556783	16.556783	16.556783	0.000000	30.000000	0.000000	16.484989	22.278365	16.896918
2184.112000	-6.125838	16.548265	16.548265	16.548265	0.000000	30.000000	0.000000	16.497157	21.860276	16.964809
2184.122000	-6.004116	16.537313	16.537313	16.537313	0.000000	30.000000	0.000000	16.472820	21.466781	16.964809
2184.132000	-5.931830	16.525145	16.525145	16.525145	0.000000	30.000000	0.000000	16.460652	21.048693	17.003604
2184.142000	-5.828508	16.511759	16.511759	16.511759	0.000000	30.000000	0.000000	16.460652	20.212516	17.158783
2184.152000	-5.741836	16.500808	16.500808	16.500808	0.000000	30.000000	0.000000	16.436315	19.843614	17.158783
2184.162000	-5.628151	16.486206	16.486206	16.486206	0.000000	30.000000	0.000000	16.424147	19.450119	17.178180
2184.172000	-5.531184	16.465519	16.465519	16.465519	0.000000	30.000000	0.000000	16.363304	19.032031	17.187879
2184.182000	-5.427890	16.448484	16.448484	16.448484	0.000000	30.000000	0.000000	16.363304	18.749206	17.197577
2184.192000	-5.297731	16.418062	16.418062	16.418062	0.000000	30.000000	0.000000	16.217283	18.454085	17.168481
2184.202000	-5.217128	16.394942	16.394942	16.394942	0.000000	30.000000	0.000000	16.253788	18.208150	17.197577
2184.212000	-5.109775	16.364521	16.364521	16.364521	0.000000	30.000000	0.000000	16.192946	17.986809	17.158783
2184.222000	-5.002417	16.332883	16.332883	16.332883	0.000000	30.000000	0.000000	16.156441	17.802359	17.187879
2184.232000	-5.002417	16.297595	16.297595	16.297595	0.000000	30.000000	0.000000	16.107767	17.667095	17.071494
2184.242000	-4.921991	16.256222	16.256222	16.256222	0.000000	30.000000	0.000000	16.046925	17.544128	17.081193
2184.252000	-4.719761	16.212416	16.212416	16.212416	0.000000	30.000000	0.000000	15.998251	17.458051	17.042398
2184.262000	-4.604207	16.167392	16.167392	16.167392	0.000000	30.000000	0.000000	15.973914	17.396567	17.042398
2184.272000	-4.488661	16.129670	16.129670	16.129670	0.000000	30.000000	0.000000	15.986083	17.359677	17.042398
2184.282000	-4.422576	16.088297	16.088297	16.088297	0.000000	30.000000	0.000000	15.949577	17.396567	17.061796
2184.292000	-4.360624	16.059093	16.059093	16.059093	0.000000	30.000000	0.000000	15.925240	17.396567	17.052097
2184.302000	-4.294530	16.027455	16.027455	16.027455	0.000000	30.000000	0.000000	15.937409	17.494941	16.945412
2184.312000	-4.245090	16.005552	16.005552	16.005552	0.000000	30.000000	0.000000	15.973914	17.630205	17.149084
2184.322000	-4.193522	15.988516	15.988516	15.988516	0.000000	30.000000	0.000000	15.986083	17.753172	17.168481
2184.332000	-4.152270	15.979998	15.979998	15.979998	0.000000	30.000000	0.000000	16.022588	17.974513	17.197577
2184.342000	-4.075795	15.979998	15.979998	15.979998	0.000000	30.000000	0.000000	16.046925	18.195854	17.246071
2184.352000	-3.898090	15.988516	15.988516	15.988516	0.000000	30.000000	0.000000	16.083430	18.490975	17.284865
2184.362000	-3.825781	15.999468	15.999468	15.999468	0.000000	30.000000	0.000000	16.083430	18.798393	17.294564
2184.372000	-3.772000	16.016504	16.016504	16.016504	0.000000	30.000000	0.000000	16.156441	19.191888	17.381852
2184.382000	-3.612823	16.038407	16.038407	16.038407	0.000000	30.000000	0.000000	16.168609	19.597680	17.440044
2184.392000	-3.461778	16.061527	16.061527	16.061527	0.000000	30.000000	0.000000	16.156441	19.966581	17.517634
2184.402000	-3.399839	16.084647	16.084647	16.084647	0.000000	30.000000	0.000000	16.168609	20.519934	17.517634
2184.412000	-3.315171	16.106550	16.106550	16.106550	0.000000	30.000000	0.000000	16.192946	21.011802	17.585524
2184.422000	-3.209804	16.132104	16.132104	16.132104	0.000000	30.000000	0.000000	16.241620	21.552858	17.634018
2184.432000	-3.114790	16.147923	16.147923	16.147923	0.000000	30.000000	0.000000	16.180778	22.069320	17.701908
2184.442000	-3.019778	16.162525	16.162525	16.162525	0.000000	30.000000	0.000000	16.192946	22.573486	17.740703
2184.452000	-2.930898	16.175910	16.175910	16.175910	0.000000	30.000000	0.000000	16.217283	23.065355	17.643716
2184.462000	-2.900070	16.191729	16.191729	16.191729	0.000000	30.000000	0.000000	16.241620	23.544927	17.866786
2184.472000	-2.751520	16.201464	16.201464	16.201464	0.000000	30.000000	0.000000	16.253788	24.012202	17.886183
2184.482000	-2.751520	16.209982	16.209982	16.209982	0.000000	30.000000	0.000000	16.253788	24.430290	17.973471
2184.492000	-2.631522	16.222150	16.222150	16.222150	0.000000	30.000000	0.000000	16.278125	24.848379	18.031663
2184.502000	-2.528428	16.229451	16.229451	16.229451	0.000000	30.000000	0.000000	16.241620	25.254171	18.080157
2184.512000	-2.421069	16.239186	16.239186	16.239186	0.000000	30.000000	0.000000	16.290294	25.610776	18.118952
2184.522000	-2.239445	16.242837	16.242837	16.242837	0.000000	30.000000	0.000000	16.278125	25.955084	18.177144
2184.532000	-2.175553	16.253788	16.253788	16.253788	0.000000	30.000000	0.000000	16.290294	26.262502	18.254733
2184.542000	-2.090929	16.261089	16.261089	16.261089	0.000000	30.000000	0.000000	16.265957	26.508436	18.283829
2184.552000	-2.016671	16.268390	16.268390	16.268390	0.000000	30.000000	0.000000	16.290294	26.951118	18.371117
2184.562000	-1.909319	16.275692	16.275692	16.275692	0.000000	30.000000	0.000000	16.314631	27.049492	18.400213
2184.572000	-1.806297	16.275692	16.275692	16.275692	0.000000	30.000000	0.000000	16.253788	27.098679	18.419611
2184.582000	-1.752462	16.275692	16.275692	16.275692	0.000000	30.000000	0.000000	16.253788	27.098679	18.419611
2184.592000	-1.653152	16.272041	16.272041	16.272041	0.000000	30.000000	0.000000	16.241620	27.061789	18.429309
2184.602000	-1.502343	16.272041	16.272041	16.272041	0.000000	30.000000	0.000000	16.241620	26.975711	18.458405
2184.612000	-1.450862	16.263523	16.263523	16.263523	0.000000	30.000000	0.000000	16.205115	26.877338	18.439008
2184.622000	-1.351538	16.257439	16.257439	16.257439	0.000000	30.000000	0.000000	16.217283	26.668293	18.458405
2184.632000	-1.140818	16.253788	16.253788	16.253788	0.000000	30.000000	0.000000	16.253788	26.496139	18.545693
2184.642000	-1.035854	16.248921	16.248921	16.248921	0.000000	30.000000	0.000000	16.217283	26.311689	18.574789
2184.652000	-0.994753	16.258656	16.258656	16.258656	0.000000	30.000000	0.000000	16.387641	26.041161	18.662077
2184.662000	-0.938859	16.274475	16.274475	16.274475	0.000000	30.000000	0.000000	16.472820	25.733743	18.788160
2184.672000	-0.833918	16.313414	16.313414	16.313414	0.000000	30.000000	0.000000	16.643179	25.463215	18.943339
2184.682000	-0.790774	16.370605	16.370605	16.370605	0.000000	30.000000	0.000000	16.825705	25.143500	19.011230
2184.692000	-0.765614	16.449700	16.449700	16.449700	0.000000	30.000000	0.000000	17.032569	24.762302	19.108217
2184.702000	-0.737283	16.549482	16.549482	16.549482	0.000000	30.000000	0.000000	17.239433	24.479477	19.166409
2184.712000	-0.671384	16.666299	16.666299	16.666299	0.000000	30.000000	0.000000	17.373285	24.085982	19.321588
2184.722000	-0.638237	16.801368	16.801368	16.801368	0.000000	30.000000	0.000000	17.567981	23.729377	19.447670
2184.732000	-0.615479	16.940089	16.940089	16.940089	0.000000	30.000000	0.000000	17.640991	23.348179	19.544657
2184.742000	-0.584746	17.090977	17.090977	17.090977	0.000000	30.000000	0.000000	17.726170	22.966981	19.690137
2184.752000	-0.549574	17.233348	17.233348	17.233348	0.000000	30.000000	0.000000	17.811350	22.610376	19.583452
2184.762000	-0.434233	17.372069	17.372069	17.372069	0.000000	30.000000	0.000000	17.860023	22.241474	19.893809
2184.772000	-0.411471	17.496187	17.496187	17.496187	0.000000	30.000000	0.000000	17.884360	21.835683	19.903508
2184.782000	-0.380748	17.603269	17.603269	17.603269	0.000000	30.000000	0.000000	17.896529	21.528265	19.942303
2184.792000	-0.316879	17.693316	17.693316	17.693316	0.000000	30.000000	0.000000	17.933034	21.196253	20.010194
2184.802000	-0.154001	17.757808	17.757808	17.757808	0.000000	30.000000	0.000000	17.884360	20.851945	19.990796
2184.812000	-0.069813	17.807699	17.807699	17.807699	0.000000	30.000000	0.000000	17.872192	20.532230	19.961700
2184.822000	-0.069813	17.838120	17.838120	17.838120	0.000000	30.000000	0.000000	17.872192	20.200219	20.000495
2184.832000	0.039583	17.857590	17.857118	17.857590	0.005184	30.000000	0.000000	17.835686	19.892801	20.010194
2184.842000	0.200364	17.868541	17.866153	17.868541	0.026272	30.000000	0.000000	17.835686	19.511603	19.981098
2184.852000	0.291509	17.866108	17.862632	17.866108	0.038230	30.000000	0.000000	17.787013	19.277965	20.029591
2184.862000	0.375674	17.856373	17.851895	17.856373	0.049255	30.000000	0.000000	17.762676	18.995140	20.019892
2184.872000	0.449491	17.845421	17.840066	17.845421	0.058912	30.000000	0.000000	17.774844	18.736909	20.019892
2184.882000	0.536111	17.827168	17.820786	17.827168	0.070213	30.000000	0.000000	17.714002	18.503272	20.058687
2184.892000	0.592051	17.804048	17.797007	17.804048	0.077453	30.000000	0.000000	17.701833	18.294227	20.145975
2184.902000	0.663742	17.785796	17.777908	17.785796	0.086763	30.000000	0.000000	17.701833	18.097480	20.233263
2184.912000	0.763178	17.769977	17.760913	17.769977	0.099706	30.000000	0.000000	17.714002	17.937623	20.272058
2184.922000	0.832767	17.750507	17.740625	17.750507	0.108703	30.000000	0.000000	17.677497	17.826952	20.339949
2184.932000	0.899047	17.732255	17.721595	17.732255	0.117260	30.000000	0.000000	17.653160	17.667095	20.388442
2184.942000	1.006324	17.707918	17.695998	17.707918	0.131119	30.000000	0.000000	17.592317	17.617908	20.436935
2184.952000	1.082944	17.673846	17.661040	17.673846	0.140867	30.000000	0.000000	17.446296	17.531831	20.475730
2184.962000	1.179840	17.633690	17.619765	17.633690	0.153172	30.000000	0.000000	17.361117	17.519534	20.563018
2184.972000	1.256460	17.583800	17.569009	17.583800	0.162699	30.000000	0.000000	17.275938	17.482644	20.698800
2184.982000	1.292109	17.535126	17.519956	17.535126	0.166872	30.000000	0.000000	17.227264	17.556424	20.630909
2184.992000	1.351263	17.487669	17.471844	17.487669	0.174074	30.000000	0.000000	17.227264	17.556424	20.630909
2185.002000	1.465625	17.438995	17.421872	17.438995	0.188353	30.000000	0.000000	17.215096	17.703985	20.892773
2185.012000	1.498746	17.390321	17.372858	17.390321	0.192093	30.000000	0.000000	17.227264	17.863842	20.970363
2185.022000	1.542256	17.348949	17.331019	17.348949	0.197228	30.000000	0.000000	17.263769	17.999106	21.086747
2185.032000	1.575376	17.319744	17.301458	17.319744	0.201147	30.000000	0.000000	17.361117	18.232744	21.174035
2185.042000	1.654088	17.302708	17.283523	17.302708	0.211045	30.000000	0.000000	17.421959	18.429491	21.358310
2185.052000	1.682568	17.307576	17.288052	17.307576	0.214760	30.000000	0.000000	17.494970	18.712316	21.464995
2185.062000	1.730723	17.329479	17.309368	17.329479	0.221221	30.000000	0.000000	17.580149	19.007437	21.649270
2185.072000	1.771674	17.369635	17.348997	17.369635	0.227012	30.000000	0.000000	17.677497	19.290262	21.804449
2185.082000	1.815189	17.428043	17.406825	17.428043	0.233404	30.000000	0.000000	17.811350	19.609976	21.930532
2185.092000	1.833337	17.492536	17.471025	17.492536	0.236624	30.000000	0.000000	17.872192	19.978878	22.066313
2185.102000	1.869027	17.575282	17.553245	17.575282	0.242401	30.000000	0.000000	18.042550	20.360076	22.202095
2185.112000	1.920287	17.666545	17.643783	17.666545	0.250385	30.000000	0.000000	18.139898	20.741275	22.328178
2185.122000	1.984441	17.761459	17.737805	17.761459	0.260196	30.000000	0.000000	18.212908	21.147066	22.551247
2185.132000	2.030460	17.862457	17.838113	17.862457	0.267785	30.000000	0.000000	18.371098	21.552858	22.609439
2185.142000	2.076485	17.973190	17.948136	17.973190	0.275595	30.000000	0.000000	18.529288	21.921760	22.803413
2185.152000	2.115348	18.088790	18.063100	18.088790	0.282596	30.000000	0.000000	18.650972	22.302958	22.968290
2185.162000	2.189482	18.215342	18.188558	18.215342	0.294619	30.000000	0.000000	18.845667	22.684156	23.171962
2185.172000	2.212278	18.345544	18.318286	18.345544	0.299838	30.000000	0.000000	18.979520	23.040761	23.327141
2185.182000	2.240813	18.484265	18.456444	18.484265	0.306031	30.000000	0.000000	19.198552	23.348179	23.540512
2185.192000	2.286853	18.640021	18.611384	18.640021	0.314999	30.000000	0.000000	19.429753	23.643300	23.744184
2185.202000	2.315386	18.794560	18.765323	18.794560	0.321604	30.000000	0.000000	19.587943	23.963015	23.899363
2185.212000	2.354232	18.957617	18.927628	18.957617	0.329880	30.000000	0.000000	19.770469	24.245840	24.141830
2185.222000	2.397758	19.131626	19.100798	19.131626	0.339112	30.000000	0.000000	19.952996	24.454884	24.306708
2185.232000	2.441286	19.308068	19.276386	19.308068	0.348504	30.000000	0.000000	20.135523	24.713115	24.461887
2185.242000	2.492601	19.479644	19.447002	19.479644	0.359053	30.000000	0.000000	20.245039	24.934456	24.597668
2185.252000	2.540823	19.660953	19.627366	19.660953	0.369466	30.000000	0.000000	20.464071	25.168094	24.791642
2185.262000	2.630963	19.836179	19.801079	19.836179	0.386100	30.000000	0.000000	20.597924	25.364841	24.869231
2185.272000	2.630963	20.015055	19.979639	20.015055	0.389582	30.000000	0.000000	20.768282	25.586182	25.053506
2185.282000	2.684811	20.181763	20.145314	20.181763	0.400939	30.000000	0.000000	20.865630	25.758336	25.140794
2185.292000	2.746428	20.346037	20.308440	20.346037	0.413565	30.000000	0.000000	21.072493	25.893600	25.286274
2185.302000	2.823168	20.520046	20.481058	20.520046	0.428867	30.000000	0.000000	21.328031	26.225612	25.645125
2185.312000	2.874458	20.698922	20.658873	20.698922	0.440541	30.000000	0.000000	21.559231	26.323985	25.810003
2185.322000	2.967114	20.868063	20.826372	20.868063	0.458600	30.000000	0.000000	21.644410	26.434656	25.945784
2185.332000	2.987850	21.040855	20.998522	21.040855	0.465662	30.000000	0.000000	21.863442	26.533030	26.149457
2185.342000	3.031380	21.218515	21.175196	21.218515	0.476505	30.000000	0.000000	22.021632	26.594513	26.168854
2185.352000	3.064591	21.391307	21.347152	21.391307	0.485703	30.000000	0.000000	22.191990	26.655997	26.479212
2185.362000	3.136503	21.565315	21.519746	21.565315	0.501265	30.000000	0.000000	22.338012	26.754371	26.614993
2185.372000	3.146920	21.733240	21.687161	21.733240	0.506864	30.000000	0.000000	22.447528	26.803557	26.741076
2185.382000	3.180034	21.907249	21.860307	21.907249	0.516356	30.000000	0.000000	22.605718	26.865041	26.876858
2185.392000	3.208506	22.072740	22.025015	22.072740	0.524965	30.000000	0.000000	22.727402	26.914228	27.070831
2185.402000	3.303293	22.227279	22.177785	22.227279	0.544432	30.000000	0.000000	22.873423	26.975711	27.187215
2185.412000	3.339099	22.372083	22.321721	22.372083	0.553985	30.000000	0.000000	23.007276	27.024898	27.342394
2185.422000	3.369615	22.524189	22.473016	22.524189	0.562907	30.000000	0.000000	23.165466	27.037195	27.478176
2185.432000	3.390353	22.672644	22.620813	22.672644	0.570144	30.000000	0.000000	23.347993	27.061789	27.662451
2185.442000	3.464392	22.818665	22.765348	22.818665	0.586493	30.000000	0.000000	23.481846	27.197052	27.875821
2185.452000	3.530717	22.964687	22.909988	22.964687	0.601681	30.000000	0.000000	23.652204	27.160162	28.021302
2185.462000	3.594987	23.116792	23.060717	23.116792	0.616825	30.000000	0.000000	23.859068	27.221646	28.254070
2185.472000	3.620714	23.274982	23.218114	23.274982	0.625545	30.000000	0.000000	24.029426	27.270833	28.428646
2185.482000	3.687602	23.436822	23.378488	23.436822	0.641676	30.000000	0.000000	24.224121	27.283129	28.661414
2185.492000	3.708342	23.605964	23.546874	23.605964	0.649987	30.000000	0.000000	24.418816	27.332316	28.845689
2185.502000	3.708342	23.782406	23.722875	23.782406	0.654845	30.000000	0.000000	24.637848	27.344613	29.126951
2185.512000	3.751875	23.966150	23.905445	23.966150	0.667750	30.000000	0.000000	24.844712	27.381503	29.340322
2185.522000	3.846631	24.154761	24.092013	24.154761	0.690223	30.000000	0.000000	25.051575	27.418393	29.602186
2185.532000	3.867372	24.350673	24.287071	24.350673	0.699622	30.000000	0.000000	25.307113	27.430690	29.786461
2185.542000	3.910906	24.550235	24.485381	24.550235	0.713400	30.000000	0.000000	25.477471	27.479877	30.019229
2185.552000	3.928909	24.763183	24.697461	24.763183	0.722945	30.000000	0.000000	25.781682	27.553657	30.261696
2185.562000	3.959973	24.979782	24.912953	24.979782	0.735111	30.000000	0.000000	26.025051	27.652031	30.484766
2185.572000	3.993183	25.197597	25.129613	25.197597	0.747824	30.000000	0.000000	26.207578	27.738108	30.775726
2185.582000	4.011179	25.415412	25.346527	25.415412	0.757734	30.000000	0.000000	26.402273	27.811888	30.911508
2185.592000	4.054709	25.630794	25.560561	25.630794	0.772561	30.000000	0.000000	26.572631	27.922559	31.095783
2185.602000	4.121127	25.842525	25.770535	25.842525	0.791881	30.000000	0.000000	26.755158	28.119306	31.250962
2185.612000	4.172321	26.048171	25.974695	26.048171	0.808237	30.000000	0.000000	26.901179	28.303757	31.415839
2185.622000	4.238643	26.250168	26.174928	26.250168	0.827637	30.000000	0.000000	27.071538	28.512801	31.561319
2185.632000	4.238643	26.436345	26.360571	26.436345	0.833507	30.000000	0.000000	27.168885	28.746439	31.697101
2185.642000	4.432793	26.615221	26.535388	26.615221	0.878161	30.000000	0.000000	27.266233	28.955483	31.803786
2185.652000	4.581347	26.788013	26.704927	26.788013	0.913942	30.000000	0.000000	27.509602	29.508836	31.978363
2185.662000	4.624879	26.946203	26.861820	26.946203	0.928211	30.000000	0.000000	27.606949	29.717880	32.075350
2185.672000	4.678732	27.099525	27.013658	27.099525	0.944534	30.000000	0.000000	27.740802	29.963815	32.143240
2185.682000	4.745057	27.233378	27.145844	27.233378	0.962872	30.000000	0.000000	27.740802	29.963815	32.143240
2185.692000	4.850061	27.374532	27.284565	27.374532	0.989632	30.000000	0.000000	27.984171	30.443387	32.405105
2185.702000	4.892937	27.510819	27.419592	27.510819	1.003497	30.000000	0.000000	28.118024	30.689321	32.531187
2185.712000	4.915729	27.650756	27.558631	27.650756	1.013378	30.000000	0.000000	28.300551	30.898365	32.686366
2185.722000	4.959259	27.788259	27.694842	27.788259	1.027587	30.000000	0.000000	28.446572	31.144300	32.822148
2185.732000	4.999973	27.934281	27.839589	27.934281	1.041612	30.000000	0.000000	28.629099	31.267267	32.899737
2185.742000	5.058691	28.083953	27.987616	28.083953	1.059701	30.000000	0.000000	28.762952	31.537795	33.054916
2185.752000	5.102223	28.229974	28.132289	28.229974	1.074536	30.000000	0.000000	28.969816	31.759136	33.190698
2185.762000	5.120136	28.384513	28.285943	28.384513	1.084278	30.000000	0.000000	29.152342	31.968180	33.316781
2185.772000	5.156070	28.540269	28.440450	28.540269	1.098013	30.000000	0.000000	29.298364	32.189521	33.481658
2185.782000	5.196771	28.713061	28.611831	28.713061	1.113534	30.000000	0.000000	29.468722	32.423159	33.588344
2185.792000	5.260369	28.877335	28.774258	28.877335	1.133855	30.000000	0.000000	29.626912	32.644500	33.598042
2185.802000	5.308791	29.042826	28.938186	29.042826	1.151039	30.000000	0.000000	29.772933	32.915028	33.889003
2185.812000	5.393011	29.203450	29.096531	29.203450	1.176102	30.000000	0.000000	29.906786	33.136368	33.985989
2185.822000	5.472495	29.364073	29.254953	29.364073	1.200324	30.000000	0.000000	30.052807	33.394600	34.112072
2185.832000	5.526340	29.519829	29.409031	29.519829	1.218787	30.000000	0.000000	30.186660	33.652831	34.199360
2185.842000	5.623029	29.676802	29.563428	29.676802	1.247114	30.000000	0.000000	30.332682	33.898765	34.306046
2185.852000	5.681792	29.826474	29.711315	29.826474	1.266755	30.000000	0.000000	30.466535	34.169293	34.403033
2185.862000	5.717532	29.968845	29.852394	29.968845	1.280964	30.000000	0.000000	30.576051	34.415227	34.567910
2185.872000	5.743195	30.109999	29.992464	30.109999	1.292887	30.000000	0.000000	30.709904	34.661162	34.597006
2185.882000	5.786602	30.246286	30.127309	30.246286	1.308748	30.000000	0.000000	30.831588	34.857909	34.752185
2185.892000	5.896461	30.378922	30.257109	30.378922	1.339943	30.000000	0.000000	30.953273	35.165328	34.839473
2185.902000	5.973092	30.510341	30.386379	30.510341	1.363584	30.000000	0.000000	31.087126	35.337482	34.887967
2185.912000	6.064973	30.649061	30.522581	30.649061	1.391289	30.000000	0.000000	31.293989	35.595713	35.023748
2185.922000	6.105609	30.786565	30.658648	30.786565	1.407089	30.000000	0.000000	31.427842	35.817054	35.101338
2185.932000	6.149144	30.924068	30.794644	30.924068	1.423662	30.000000	0.000000	31.561695	36.013801	35.246818
2185.942000	6.215471	31.061572	30.930141	31.061572	1.445744	30.000000	0.000000	31.707716	36.247439	35.256517
2185.952000	6.266535	31.201509	31.068378	31.201509	1.464443	30.000000	0.000000	31.865906	36.481077	35.518381
2185.962000	6.345356	31.346313	31.210846	31.346313	1.490144	30.000000	0.000000	32.024096	36.653231	35.663861
2185.972000	6.378590	31.492335	31.355508	31.492335	1.505097	30.000000	0.000000	32.170117	36.899165	35.799643
2185.982000	6.419202	31.642007	31.503635	31.642007	1.522089	30.000000	0.000000	32.328307	37.194287	35.925726
2185.992000	6.523603	31.796546	31.655187	31.796546	1.554952	30.000000	0.000000	32.498666	37.440221	36.051808
2186.002000	6.556840	31.952302	31.809511	31.952302	1.570708	30.000000	0.000000	32.644687	37.698452	36.197289
2186.012000	6.620237	32.101974	31.957095	32.101974	1.593668	30.000000	0.000000	32.790708	37.968980	36.313673
2186.022000	6.699068	32.255297	32.107953	32.255297	1.620782	30.000000	0.000000	32.961067	38.264101	36.439756
2186.032000	6.765396	32.406185	32.256653	32.406185	1.644859	30.000000	0.000000	33.070583	38.460849	36.556140
2186.042000	6.831725	32.555857	32.404127	32.555857	1.669034	30.000000	0.000000	33.204436	38.805157	36.662825
2186.052000	6.877323	32.722565	32.569016	32.722565	1.689040	30.000000	0.000000	33.532984	39.333916	36.905292
2186.062000	6.931141	32.885622	32.730072	32.885622	1.711054	30.000000	0.000000	33.654668	39.567554	37.011978
2186.072000	6.953940	33.051113	32.894253	33.051113	1.725456	30.000000	0.000000	33.825026	39.838082	37.157458
2186.082000	6.994511	33.200785	33.042274	33.200785	1.743623	30.000000	0.000000	33.825026	39.838082	37.157458
2186.092000	7.035586	33.367493	33.207228	33.367493	1.762916	30.000000	0.000000	34.165743	40.317654	37.438720
2186.102000	7.063638	33.536634	33.374899	33.536634	1.779087	30.000000	0.000000	34.336101	40.526698	37.593899
2186.112000	7.089403	33.708209	33.545039	33.708209	1.794870	30.000000	0.000000	34.506460	40.797226	37.739379
2186.122000	7.135004	33.878568	33.713492	33.878568	1.815827	30.000000	0.000000	34.664649	41.030864	37.884859
2186.132000	7.165282	34.055010	33.888354	34.055010	1.833219	30.000000	0.000000	34.835008	41.276798	38.049737
2186.142000	7.200603	34.231453	34.063087	34.231453	1.852024	30.000000	0.000000	34.968861	41.498139	38.127326
2186.152000	7.246208	34.389642	34.219401	34.389642	1.872659	30.000000	0.000000	35.114882	41.719481	38.292204
2186.162000	7.302261	34.550266	34.377873	34.550266	1.896322	30.000000	0.000000	35.260903	41.977712	38.408588
2186.172000	7.378872	34.706022	34.530989	34.706022	1.925359	30.000000	0.000000	35.382588	42.149866	38.524972
2186.182000	7.445204	34.871513	34.694025	34.871513	1.952373	30.000000	0.000000	35.479935	42.494174	38.612260
2186.192000	7.534340	35.012667	34.832272	35.012667	1.984350	30.000000	0.000000	35.577283	42.764702	38.728644
2186.202000	7.623477	35.150171	34.966868	35.150171	2.016326	30.000000	0.000000	35.711136	42.986043	38.777138
2186.212000	7.710351	35.279156	35.093029	35.279156	2.047395	30.000000	0.000000	35.796315	43.244274	38.864426
2186.222000	7.822289	35.404491	35.214919	35.404491	2.085297	30.000000	0.000000	35.918000	43.502505	38.990509
2186.232000	7.898886	35.523742	35.331618	35.523742	2.113363	30.000000	0.000000	36.027516	43.797627	38.932317
2186.242000	7.898886	35.640559	35.447803	35.640559	2.120312	30.000000	0.000000	36.137032	44.018968	39.262072
2186.252000	8.024117	35.758593	35.562049	35.758593	2.161988	30.000000	0.000000	36.295222	44.277199	39.320264
2186.262000	8.208491	35.872976	35.671145	35.872976	2.220142	30.000000	0.000000	36.404738	44.510837	39.514238
2186.272000	8.302752	35.987360	35.782494	35.987360	2.253525	30.000000	0.000000	36.526422	44.756771	39.640321
2186.282000	8.382393	36.106611	35.899038	36.106611	2.283304	30.000000	0.000000	36.672444	44.990409	39.776102
2186.292000	8.448719	36.229512	36.019537	36.229512	2.309729	30.000000	0.000000	36.806296	45.248640	39.873089
2186.302000	8.492244	36.352413	36.140609	36.352413	2.329852	30.000000	0.000000	36.940149	45.482278	40.008870
2186.312000	8.515045	36.482616	36.269465	36.482616	2.344658	30.000000	0.000000	37.098339	45.703619	40.105857
2186.322000	8.540917	36.611601	36.397028	36.611601	2.360306	30.000000	0.000000	37.207855	45.863476	40.231940
2186.332000	8.540917	36.745454	36.530096	36.745454	2.368935	30.000000	0.000000	37.366045	46.183191	40.328927
2186.342000	8.573976	36.880524	36.663513	36.880524	2.387117	30.000000	0.000000	37.487730	46.416829	40.464709
2186.352000	8.663107	37.015594	36.795457	37.015594	2.421506	30.000000	0.000000	37.645919	46.625873	40.590791
2186.362000	8.703549	37.144579	36.922613	37.144579	2.441627	30.000000	0.000000	37.694593	46.884105	40.668381
2186.372000	8.749939	37.277215	37.053234	37.277215	2.463798	30.000000	0.000000	37.852783	47.105446	40.765368
2186.382000	8.870037	37.409852	37.181894	37.409852	2.507536	30.000000	0.000000	37.998805	47.388270	40.707176
2186.392000	8.957082	37.538837	37.307780	37.538837	2.541634	30.000000	0.000000	38.096152	47.585018	41.027232
2186.402000	8.957082	37.670256	37.438390	37.670256	2.550532	30.000000	0.000000	38.254342	47.794062	41.075725
2186.412000	9.110443	37.799242	37.562473	37.799242	2.604457	30.000000	0.000000	38.388195	48.027700	41.172712
2186.422000	9.200374	37.942830	37.702741	37.942830	2.640973	30.000000	0.000000	38.643732	48.445789	41.318193
2186.432000	9.240769	38.083984	37.841910	38.083984	2.662807	30.000000	0.000000	38.777585	48.630239	41.453974
2186.442000	9.299733	38.220270	37.975731	38.220270	2.689933	30.000000	0.000000	38.850596	48.814690	41.512166
2186.452000	9.386772	38.340738	38.093058	38.340738	2.724483	30.000000	0.000000	38.850596	48.814690	41.512166
2186.462000	9.568138	38.483109	38.229547	38.483109	2.789176	30.000000	0.000000	39.118302	49.109812	41.667345
2186.472000	9.672739	38.620612	38.363270	38.620612	2.830763	30.000000	0.000000	39.227818	49.404933	41.774031
2186.482000	9.672739	38.753248	38.495023	38.753248	2.840485	30.000000	0.000000	39.325166	49.564791	41.841921
2186.492000	9.811440	38.890752	38.627768	38.890752	2.892820	30.000000	0.000000	39.471187	49.712351	41.909812
2186.502000	9.865194	39.022171	38.756804	39.022171	2.919039	30.000000	0.000000	39.568535	49.859912	41.968004
2186.512000	9.954297	39.153590	38.884842	39.153590	2.956232	30.000000	0.000000	39.702388	50.019769	42.123183
2186.522000	10.038141	39.269191	38.997300	39.269191	2.990798	30.000000	0.000000	39.799735	50.191924	42.016498
2186.532000	10.107631	39.383574	39.108938	39.383574	3.020998	30.000000	0.000000	39.921420	50.364078	42.200773
2186.542000	10.173934	39.502825	39.225487	39.502825	3.050720	30.000000	0.000000	40.043104	50.511638	42.268663
2186.552000	10.283745	39.634244	39.352873	39.634244	3.095079	30.000000	0.000000	40.164789	50.634606	42.307458
2186.562000	10.327253	39.748628	39.465208	39.748628	3.117611	30.000000	0.000000	40.262136	50.806760	42.375349
2186.572000	10.393550	39.858144	39.572054	39.858144	3.146990	30.000000	0.000000	40.322978	50.942024	42.404445
2186.582000	10.496077	39.971310	39.681475	39.971310	3.188186	30.000000	0.000000	40.456831	51.052694	42.462637
2186.592000	10.586047	40.078393	39.785199	40.078393	3.225131	30.000000	0.000000	40.542011	51.175662	42.501432
2186.602000	10.657264	40.187909	39.891863	40.187909	3.256501	30.000000	0.000000	40.663695	51.274035	42.569323
2186.612000	10.800956	40.290124	39.989174	40.290124	3.310447	30.000000	0.000000	40.724537	51.347816	42.530528
2186.622000	10.857927	40.389905	40.086559	40.389905	3.336807	30.000000	0.000000	40.797548	51.495377	42.588720
2186.632000	10.977932	40.486036	40.178479	40.486036	3.383121	30.000000	0.000000	40.882727	51.544563	42.608117
2186.642000	11.116742	40.579733	40.267417	40.579733	3.435477	30.000000	0.000000	40.980075	51.655234	42.637213
2186.652000	11.291877	40.667346	40.349232	40.667346	3.499255	30.000000	0.000000	41.040917	51.716718	42.705104
2186.662000	11.337728	40.752525	40.432399	40.752525	3.521382	30.000000	0.000000	41.113928	51.802795	42.666309
2186.672000	11.447494	40.840138	40.516095	40.840138	3.564474	30.000000	0.000000	41.199107	51.864278	42.666309
2186.682000	11.447494	40.919233	40.594562	40.919233	3.571377	30.000000	0.000000	41.247781	51.938059	42.705104
2186.692000	11.685892	40.997111	40.664773	40.997111	3.655711	30.000000	0.000000	41.320791	52.097916	42.714803
2186.702000	11.783075	41.068904	40.733103	41.068904	3.693813	30.000000	0.000000	41.381634	52.110213	42.705104
2186.712000	11.859542	41.139482	40.800830	41.139482	3.725162	30.000000	0.000000	41.430307	52.208587	42.743899
2186.722000	11.941397	41.201541	40.859941	41.201541	3.757599	30.000000	0.000000	41.418139	52.294664	42.753598
2186.732000	12.030434	41.268467	40.923655	41.268467	3.792938	30.000000	0.000000	41.551992	52.356147	42.782694
2186.742000	12.234614	41.329309	40.977878	41.329309	3.865739	30.000000	0.000000	41.588497	52.454521	42.811790
2186.752000	12.234614	41.387718	41.035790	41.387718	3.871202	30.000000	0.000000	41.625003	52.528302	42.899078
2186.762000	12.349771	41.444910	41.089036	41.444910	3.914606	30.000000	0.000000	41.685845	52.638972	42.821488
2186.772000	12.528788	41.503318	41.141552	41.503318	3.979424	30.000000	0.000000	41.783193	52.761939	42.840886
2186.782000	12.574337	41.560510	41.196871	41.560510	4.000029	30.000000	0.000000	41.819698	52.860313	42.879680
2186.792000	12.651094	41.616485	41.250035	41.616485	4.030943	30.000000	0.000000	41.880540	52.958687	42.937873
2186.802000	12.776446	41.672460	41.301720	41.672460	4.078137	30.000000	0.000000	41.941382	53.044764	42.937873
2186.812000	12.809731	41.734519	41.362216	41.734519	4.095325	30.000000	0.000000	42.050898	53.155435	43.005763
2186.822000	12.886150	41.808746	41.433457	41.808746	4.128182	30.000000	0.000000	42.160415	53.216918	43.054257
2186.832000	12.988729	41.875673	41.496655	41.875673	4.169195	30.000000	0.000000	42.221257	53.315292	43.073654
2186.842000	13.091312	41.948683	41.565869	41.948683	4.210954	30.000000	0.000000	42.318604	53.425963	43.102750
2186.852000	13.167716	42.025345	41.639490	42.025345	4.244401	30.000000	0.000000	42.391615	53.475150	43.151244
2186.862000	13.272724	42.102006	41.712222	42.102006	4.287622	30.000000	0.000000	42.452457	53.610414	43.190038
2186.872000	13.372234	42.187185	41.793548	42.187185	4.330010	30.000000	0.000000	42.634984	53.856348	43.238532
2186.882000	13.422775	42.273581	41.877577	42.273581	4.356045	30.000000	0.000000	42.683658	54.003909	43.287025
2186.892000	13.494506	42.353893	41.954916	42.353893	4.388742	30.000000	0.000000	42.683658	54.003909	43.287025
2186.902000	13.604167	42.430554	42.027453	42.430554	4.434112	30.000000	0.000000	42.707995	54.126876	43.354916
2186.912000	13.811419	42.510866	42.100552	42.510866	4.513450	30.000000	0.000000	42.854016	54.409701	43.277327
2186.922000	13.934680	42.588744	42.173831	42.588744	4.564039	30.000000	0.000000	42.939195	54.544965	43.277327
2186.932000	14.049875	42.667839	42.248551	42.667839	4.612172	30.000000	0.000000	43.012206	54.667932	43.345217
2186.942000	14.159506	42.749368	42.325838	42.749368	4.658828	30.000000	0.000000	43.133891	54.790899	43.393711
2186.952000	14.239331	42.835764	42.408866	42.835764	4.695873	30.000000	0.000000	43.255575	54.864680	43.413108
2186.962000	14.282762	42.924593	42.495440	42.924593	4.720681	30.000000	0.000000	43.340754	54.975350	43.490698
2186.972000	14.341919	43.008556	42.576693	43.008556	4.750489	30.000000	0.000000	43.474607	55.036834	43.519794
2186.982000	14.437485	43.099819	42.664010	43.099819	4.793894	30.000000	0.000000	43.596292	55.221285	43.577986
2186.992000	14.613279	43.199600	42.757192	43.199600	4.866495	30.000000	0.000000	43.681471	55.258175	43.636178
2187.002000	14.658789	43.310333	42.865338	43.310333	4.894945	30.000000	0.000000	43.815324	55.368846	43.684671
2187.012000	14.724962	43.408898	42.960773	43.408898	4.929375	30.000000	0.000000	43.839661	55.467219	43.762261
2187.022000	14.787652	43.518414	43.067146	43.518414	4.963941	30.000000	0.000000	44.034356	55.651670	43.801055
2187.032000	14.910517	43.624279	43.167959	43.624279	5.019523	30.000000	0.000000	44.070861	55.762341	43.810754
2187.042000	15.105564	43.728928	43.265212	43.728928	5.100873	30.000000	0.000000	44.180377	55.934495	43.820453
2187.052000	15.211308	43.827492	43.359304	43.827492	5.150070	30.000000	0.000000	44.241220	56.118946	43.791357
2187.062000	15.324029	43.924840	43.451947	43.924840	5.201817	30.000000	0.000000	44.314230	56.205023	43.878645
2187.072000	15.470029	44.014886	43.536264	44.014886	5.264842	30.000000	0.000000	44.375073	56.414067	43.888344
2187.082000	15.595360	44.101282	43.617623	44.101282	5.320257	30.000000	0.000000	44.460252	56.537035	44.004728
2187.092000	15.668260	44.186462	43.699478	44.186462	5.356823	30.000000	0.000000	44.533262	56.660002	43.946536
2187.102000	15.738839	44.270424	43.780195	44.270424	5.392517	30.000000	0.000000	44.654947	56.782969	44.014426
2187.112000	15.787913	44.359254	43.866424	44.359254	5.421121	30.000000	0.000000	44.727958	56.905937	44.043522
2187.122000	15.916846	44.440782	43.942789	44.440782	5.477923	30.000000	0.000000	44.849642	57.016607	44.004728
2187.132000	15.982973	44.529612	44.028434	44.529612	5.512959	30.000000	0.000000	44.959158	57.164168	44.150208
2187.142000	16.042171	44.618442	44.114299	44.618442	5.545572	30.000000	0.000000	45.068674	57.274838	44.092016
2187.152000	16.132133	44.714572	44.206349	44.714572	5.590457	30.000000	0.000000	45.202527	57.422399	44.189003
2187.162000	16.293920	44.810703	44.295986	44.810703	5.661889	30.000000	0.000000	45.275538	57.545366	44.218099
2187.172000	16.353124	44.919002	44.401058	44.919002	5.697384	30.000000	0.000000	45.458065	57.656037	44.285990
2187.182000	16.478437	45.026085	44.502696	45.026085	5.757272	30.000000	0.000000	45.531076	57.766708	44.382976
2187.192000	16.570924	45.139251	44.611430	45.139251	5.806031	30.000000	0.000000	45.664928	57.901972	44.460566
2187.202000	16.686139	45.253635	44.720580	45.253635	5.863598	30.000000	0.000000	45.798781	58.074126	44.450867
2187.212000	16.851596	45.370452	44.830407	45.370452	5.940496	30.000000	0.000000	45.896129	58.233983	44.518758
2187.222000	16.937211	45.486052	44.941716	45.486052	5.987700	30.000000	0.000000	46.005645	58.381544	44.547854
2187.232000	17.050342	45.612604	45.062888	45.612604	6.046882	30.000000	0.000000	46.224677	58.713556	44.712732
2187.242000	17.142834	45.735506	45.181137	45.735506	6.098059	30.000000	0.000000	46.297688	58.910303	44.741828
2187.252000	17.258045	45.853539	45.293776	45.853539	6.157393	30.000000	0.000000	46.382867	59.082457	44.790321
2187.262000	17.324111	45.964272	45.400878	45.964272	6.197339	30.000000	0.000000	46.382867	59.082457	44.790321
2187.272000	17.521734	46.081090	45.509420	46.081090	6.288361	30.000000	0.000000	46.626236	59.475953	44.916404
2187.282000	17.621051	46.201557	45.624942	46.201557	6.342767	30.000000	0.000000	46.735752	59.598920	44.945500
2187.292000	17.756869	46.320808	45.737968	46.320808	6.411237	30.000000	0.000000	46.857437	59.795668	44.935801
2187.302000	17.836712	46.441276	45.854127	46.441276	6.458640	30.000000	0.000000	47.003458	59.980119	45.052186
2187.312000	17.991689	46.564177	45.970033	46.564177	6.535587	30.000000	0.000000	47.125143	60.127679	45.129775
2187.322000	18.045070	46.695596	46.097894	46.695596	6.574724	30.000000	0.000000	47.319838	60.250647	45.207365
2187.332000	18.121147	46.824582	46.222540	46.824582	6.622467	30.000000	0.000000	47.514533	60.410504	45.323749
2187.342000	18.206842	46.958435	46.351632	46.958435	6.674834	30.000000	0.000000	47.636218	60.533472	45.372242
2187.352000	18.288770	47.099589	46.488045	47.099589	6.726980	30.000000	0.000000	47.794408	60.644142	45.381941
2187.362000	18.426652	47.252911	46.634449	47.252911	6.803089	30.000000	0.000000	47.916092	60.926967	45.440133
2187.372000	18.426652	47.392849	46.772555	47.392849	6.823236	30.000000	0.000000	48.025608	61.049934	45.498325
2187.382000	18.547719	47.532786	46.906303	47.532786	6.891308	30.000000	0.000000	48.135124	61.258979	45.517722
2187.392000	18.818441	47.666639	47.028609	47.666639	7.018334	30.000000	0.000000	48.195967	61.406539	45.614709
2187.402000	18.884426	47.800492	47.158276	47.800492	7.064378	30.000000	0.000000	48.341988	61.615584	45.605011
2187.412000	19.013465	47.931911	47.283231	47.931911	7.135480	30.000000	0.000000	48.439336	61.763145	45.469229
2187.422000	19.105957	48.054813	47.401090	48.054813	7.190943	30.000000	0.000000	48.548852	61.923002	45.634107
2187.432000	19.161896	48.170413	47.513069	48.170413	7.230786	30.000000	0.000000	48.670536	62.119750	45.692299
2187.442000	19.223236	48.287230	47.626038	48.287230	7.273113	30.000000	0.000000	48.804389	62.279607	45.692299
2187.452000	19.303062	48.395529	47.729913	48.395529	7.321776	30.000000	0.000000	48.877400	62.414871	45.760190
2187.462000	19.303062	48.507479	47.840323	48.507479	7.338713	30.000000	0.000000	49.035590	62.574729	45.808683
2187.472000	19.453361	48.623079	47.948765	48.623079	7.417451	30.000000	0.000000	49.181611	62.697696	45.847478
2187.482000	19.559179	48.742330	48.062429	48.742330	7.478911	30.000000	0.000000	49.327633	62.808367	45.886272
2187.492000	19.635130	48.873749	48.189183	48.873749	7.530235	30.000000	0.000000	49.510159	62.955927	45.983259
2187.502000	19.747473	49.010036	48.319356	49.010036	7.597482	30.000000	0.000000	49.704855	63.042005	45.992958
2187.512000	19.862632	49.156057	48.458993	49.156057	7.667707	30.000000	0.000000	49.899550	63.263346	46.022054
2187.522000	19.955117	49.305729	48.603055	49.305729	7.729416	30.000000	0.000000	50.045571	63.398610	46.070547
2187.532000	20.080268	49.456618	48.747056	49.456618	7.805183	30.000000	0.000000	50.179424	63.607654	46.080246
2187.542000	20.225322	49.600206	48.883072	49.600206	7.888478	30.000000	0.000000	50.240267	63.792105	46.041451
2187.552000	20.397613	49.746227	49.020408	49.746227	7.984014	30.000000	0.000000	50.337614	63.951963	46.041451
2187.562000	20.492181	49.886165	49.154682	49.886165	8.046315	30.000000	0.000000	50.434962	64.148710	46.099643
2187.572000	20.600674	50.022451	49.284800	50.022451	8.114163	30.000000	0.000000	50.544478	64.308568	46.099643
2187.582000	20.600674	50.156304	49.416679	50.156304	8.135875	30.000000	0.000000	50.666163	64.480722	46.089945
2187.592000	20.778997	50.286507	49.538065	50.286507	8.232858	30.000000	0.000000	50.812184	64.628283	46.157836
2187.602000	20.867515	50.416709	49.662894	50.416709	8.291966	30.000000	0.000000	51.006879	64.849624	46.216028
2187.612000	20.904102	50.556646	49.799314	50.556646	8.330652	30.000000	0.000000	51.298922	64.972591	46.410001
2187.622000	20.973922	50.700234	49.938024	50.700234	8.384313	30.000000	0.000000	51.481449	65.083262	46.497290
2187.632000	21.026550	50.830437	50.064207	50.830437	8.428527	30.000000	0.000000	51.481449	65.083262	46.497290
2187.642000	21.128992	50.989843	50.217182	50.989843	8.499273	30.000000	0.000000	51.834334	65.341493	46.681565
2187.652000	21.175554	51.152901	50.375931	51.152901	8.546669	30.000000	0.000000	51.968187	65.489054	46.768853
2187.662000	21.265309	51.322042	50.538947	51.322042	8.614048	30.000000	0.000000	52.126377	65.624318	46.875538
2187.672000	21.381189	51.492401	50.702096	51.492401	8.693351	30.000000	0.000000	52.248062	65.808769	46.885237
2187.682000	21.598239	51.662759	50.861166	51.662759	8.817524	30.000000	0.000000	52.369746	65.956330	46.962826
2187.692000	21.598239	51.828250	51.024089	51.828250	8.845769	30.000000	0.000000	52.467094	66.153078	47.040416
2187.702000	21.798593	51.987657	51.172953	51.987657	8.961734	30.000000	0.000000	52.600947	66.312935	47.098608
2187.712000	21.867775	52.130028	51.310297	52.130028	9.017038	30.000000	0.000000	52.722631	66.472793	47.147101
2187.722000	21.992372	52.268748	51.441782	52.268748	9.096622	30.000000	0.000000	52.868653	66.669540	47.263486
2187.732000	22.120779	52.420854	51.586253	52.420854	9.180601	30.000000	0.000000	53.002506	66.780211	47.331376
2187.742000	22.120779	52.547405	51.710791	52.547405	9.202764	30.000000	0.000000	53.099853	66.976959	47.389569
2187.752000	22.432389	52.669090	51.817771	52.669090	9.364514	30.000000	0.000000	53.185032	67.136816	47.476857
2187.762000	22.512149	52.793208	51.936602	52.793208	9.422664	30.000000	0.000000	53.367559	67.308970	47.476857
2187.772000	22.614167	52.916110	52.053302	52.916110	9.490889	30.000000	0.000000	53.477075	67.431938	47.612638
2187.782000	22.696006	53.040228	52.172010	53.040228	9.550396	30.000000	0.000000	53.610928	67.628686	47.767817
2187.792000	22.800444	53.169213	52.294550	53.169213	9.621299	30.000000	0.000000	53.756950	67.800840	47.758119
2187.802000	22.915180	53.300633	52.419030	53.300633	9.697629	30.000000	0.000000	53.915140	67.948401	47.884201
2187.812000	22.993311	53.434486	52.547406	53.434486	9.757882	30.000000	0.000000	54.061161	68.157445	47.971490
2187.822000	23.015916	53.573206	52.682876	53.573206	9.793632	30.000000	0.000000	54.255856	68.354193	48.010284
2187.832000	23.073833	53.711927	52.816858	53.711927	9.845758	30.000000	0.000000	54.389709	68.563237	48.068477
2187.842000	23.299264	53.851864	52.944957	53.851864	9.975974	30.000000	0.000000	54.499226	68.772282	48.116970
2187.852000	23.403685	53.991801	53.078118	53.991801	10.050516	30.000000	0.000000	54.584405	69.005920	48.136367
2187.862000	23.538239	54.119570	53.198011	54.119570	10.137151	30.000000	0.000000	54.645247	69.239558	48.155765
2187.872000	23.603706	54.244905	53.318423	54.244905	10.191301	30.000000	0.000000	54.730426	69.522382	48.184861
2187.882000	23.769210	54.372674	53.436938	54.372674	10.293096	30.000000	0.000000	54.888616	69.915878	48.252752
2187.892000	23.843253	54.485840	53.544984	54.485840	10.349424	30.000000	0.000000	54.888616	70.112626	48.272149
2187.902000	23.921483	54.602657	53.656422	54.602657	10.408591	30.000000	0.000000	55.083311	70.309373	48.359437
2187.912000	24.001996	54.715824	53.764158	54.715824	10.468321	30.000000	0.000000	55.192828	70.493824	48.446725
2187.922000	24.201580	54.824123	53.861949	54.824123	10.583914	30.000000	0.000000	55.338849	70.653682	48.592206
2187.932000	24.271435	54.931206	53.964125	54.931206	10.637890	30.000000	0.000000	55.460534	70.788946	48.582507
2187.942000	24.320811	55.040722	54.069568	55.040722	10.682696	30.000000	0.000000	55.594387	70.936507	48.708590
2187.952000	24.370189	55.158756	54.183368	55.158756	10.729262	30.000000	0.000000	55.764745	71.108661	48.795878
2187.962000	24.502652	55.282874	54.299506	55.282874	10.817053	30.000000	0.000000	55.886429	71.256222	48.902563
2187.972000	24.575910	55.413077	54.424182	55.413077	10.877839	30.000000	0.000000	56.032451	71.452970	48.970454
2187.982000	24.618960	55.537195	54.544194	55.537195	10.923009	30.000000	0.000000	56.129799	71.637421	49.009249
2187.992000	24.737364	55.669831	54.669241	55.669831	11.006487	30.000000	0.000000	56.214978	71.809575	49.067441
2188.002000	24.948960	55.795166	54.782967	55.795166	11.134184	30.000000	0.000000	56.336662	72.018620	48.980153
2188.012000	25.004744	55.916851	54.899970	55.916851	11.185685	30.000000	0.000000	56.409673	72.252258	49.125633
2188.022000	25.103520	56.038535	55.015048	56.038535	11.258354	30.000000	0.000000	56.555695	72.424412	49.145031
2188.032000	25.201455	56.160220	55.130142	56.160220	11.330855	30.000000	0.000000	56.677379	72.596566	49.232319
2188.042000	25.405860	56.281904	55.240447	56.281904	11.456029	30.000000	0.000000	56.811232	72.793314	49.261415
2188.052000	25.469333	56.401155	55.354642	56.401155	11.511645	30.000000	0.000000	56.957254	72.928578	49.339004
2188.062000	25.518730	56.522840	55.471846	56.522840	11.560936	30.000000	0.000000	57.103275	73.137623	49.397196
2188.072000	25.561727	56.645741	55.590522	56.645741	11.607414	30.000000	0.000000	57.261465	73.260590	49.465087
2188.082000	25.637970	56.774727	55.713655	56.774727	11.671787	30.000000	0.000000	57.419655	73.469634	49.542677
2188.092000	25.769973	56.909797	55.840210	56.909797	11.765454	30.000000	0.000000	57.565676	73.580305	49.639664
2188.102000	25.866665	57.052168	55.975502	57.052168	11.843319	30.000000	0.000000	57.760372	73.826240	49.697856
2188.112000	25.989346	57.200623	56.115550	57.200623	11.935795	30.000000	0.000000	57.894225	73.998394	49.746349
2188.122000	26.088502	57.346644	56.254256	57.346644	12.016267	30.000000	0.000000	58.015909	74.219735	49.872432
2188.132000	26.145684	57.504834	56.406803	57.504834	12.078346	30.000000	0.000000	58.259278	74.625528	49.959720
2188.142000	26.235056	57.660590	56.555461	57.660590	12.156426	30.000000	0.000000	58.368794	74.822275	49.853035
2188.152000	26.357738	57.801744	56.688230	57.801744	12.248660	30.000000	0.000000	58.368794	74.822275	49.853035
2188.162000	26.557009	57.950200	56.824565	57.950200	12.381977	30.000000	0.000000	58.587827	75.215771	50.134297
2188.172000	26.663648	58.097438	56.963970	58.097438	12.468145	30.000000	0.000000	58.733848	75.437112	50.202187
2188.182000	26.765733	58.247110	57.105945	58.247110	12.552812	30.000000	0.000000	58.916375	75.609267	50.289476
2188.192000	26.854786	58.404083	57.255662	58.404083	12.632636	30.000000	0.000000	59.135407	75.793718	50.376764
2188.202000	26.939457	58.562273	57.406752	58.562273	12.710730	30.000000	0.000000	59.342271	76.015059	50.405860
2188.212000	27.048931	58.727764	57.563802	58.727764	12.803581	30.000000	0.000000	59.549135	76.174916	50.473751
2188.222000	27.118739	58.894472	57.723894	58.894472	12.876356	30.000000	0.000000	59.682988	76.408555	50.454353
2188.232000	27.166043	59.052662	57.876689	59.052662	12.935705	30.000000	0.000000	59.841178	76.543819	50.551340
2188.242000	27.364128	59.208418	58.019883	59.208418	13.073888	30.000000	0.000000	59.926357	76.888127	50.609532
2188.252000	27.455767	59.369042	58.172889	59.369042	13.157679	30.000000	0.000000	59.975031	77.097172	50.590135
2188.262000	27.580564	59.508979	58.304005	59.508979	13.254710	30.000000	0.000000	59.987199	77.343107	50.658026
2188.272000	27.678430	59.630663	58.418506	59.630663	13.333732	30.000000	0.000000	59.950694	77.576745	50.706519
2188.282000	27.767544	59.736529	58.517911	59.736529	13.404797	30.000000	0.000000	59.975031	77.785789	50.784109
2188.292000	27.855700	59.824142	58.599466	59.824142	13.471439	30.000000	0.000000	60.011536	77.970240	50.764711
2188.302000	27.960120	59.891068	58.659954	59.891068	13.542262	30.000000	0.000000	60.011536	78.142395	51.065370
2188.312000	28.046182	59.947043	58.710594	59.947043	13.600943	30.000000	0.000000	60.108884	78.277659	51.142960
2188.322000	28.181664	60.001801	58.757624	60.001801	13.685947	30.000000	0.000000	60.230568	78.412923	51.259344
2188.332000	28.254948	60.057776	58.808863	60.057776	13.738041	30.000000	0.000000	60.400927	78.548187	51.453318
2188.342000	28.297783	60.125920	58.873497	60.125920	13.776650	30.000000	0.000000	60.607791	78.683451	51.598798
2188.352000	28.367968	60.207448	58.949892	60.207448	13.833120	30.000000	0.000000	60.790317	78.843309	51.724881
2188.362000	28.460216	60.297495	59.033533	60.297495	13.903581	30.000000	0.000000	60.887665	79.064650	51.792772
2188.372000	28.523819	60.396059	59.126905	60.396059	13.960701	30.000000	0.000000	60.936339	79.236804	51.870361
2188.382000	28.642011	60.495841	59.218766	60.495841	14.047825	30.000000	0.000000	60.972844	79.433552	51.918855
2188.392000	28.784103	60.590755	59.304657	60.590755	14.147073	30.000000	0.000000	60.960676	79.753267	51.947951
2188.402000	29.048206	60.685669	59.384471	60.685669	14.313179	30.000000	0.000000	60.960676	79.999202	52.006143
2188.412000	29.048206	60.772065	59.469014	60.772065	14.333556	30.000000	0.000000	60.972844	80.195950	52.074034
2188.422000	29.206644	60.849943	59.537339	60.849943	14.438647	30.000000	0.000000	61.009350	80.392698	52.151623
2188.432000	29.206644	60.921737	59.607584	60.921737	14.455683	30.000000	0.000000	61.118866	80.577149	52.229213
2188.442000	29.456250	60.991097	59.662980	60.991097	14.609289	30.000000	0.000000	61.301393	80.737007	52.258309
2188.452000	29.492882	61.064108	59.732567	61.064108	14.646951	30.000000	0.000000	61.520425	80.847677	52.432885
2188.462000	29.556518	61.150504	59.813887	61.150504	14.702780	30.000000	0.000000	61.751626	81.007535	52.529872
2188.472000	29.615576	61.246635	59.904949	61.246635	14.758541	30.000000	0.000000	61.897647	81.155096	52.617160
2188.482000	29.771968	61.357368	60.005376	61.357368	14.871903	30.000000	0.000000	62.080174	81.314953	52.723846
2188.492000	29.814706	61.471751	60.115080	61.471751	14.923377	30.000000	0.000000	62.104511	81.511701	52.849929
2188.502000	29.891150	61.604387	60.240918	61.604387	14.998165	30.000000	0.000000	62.287038	81.733043	52.908121
2188.512000	30.019933	61.746758	60.375479	61.746758	15.096833	30.000000	0.000000	62.396554	81.917494	52.888724
2188.522000	30.112700	61.900081	60.529462	61.900081	15.149163	30.000000	0.000000	62.542575	82.126538	53.034204
2188.532000	30.302239	62.061921	60.696050	62.061921	15.219190	30.000000	0.000000	62.737271	82.360176	52.976012
2188.542000	30.371967	62.226195	60.859783	62.226195	15.270699	30.000000	0.000000	62.944134	82.606111	53.053601
2188.552000	30.500707	62.394120	61.029714	62.394120	15.332694	30.000000	0.000000	63.199672	82.852046	53.053601
2188.562000	30.633338	62.566912	61.204611	62.566912	15.396638	30.000000	0.000000	63.479547	83.085684	53.150588
2188.572000	30.703047	62.783511	61.419597	62.783511	15.461273	30.000000	0.000000	64.063633	83.614444	53.296069
2188.582000	30.779512	63.007410	61.642051	63.007410	15.528889	30.000000	0.000000	64.319170	83.884972	53.383357
2188.592000	30.855981	63.228876	61.862148	63.228876	15.595998	30.000000	0.000000	64.319170	83.884972	53.383357
2188.602000	30.942030	63.462511	62.094608	63.462511	15.667777	30.000000	0.000000	64.623382	84.155501	53.480344
2188.612000	31.176345	63.733867	62.370719	63.733867	15.773486	30.000000	0.000000	65.110120	84.881008	53.703413
2188.622000	31.332856	64.010091	62.648153	64.010091	15.867836	30.000000	0.000000	65.304815	85.249911	53.877990
2188.632000	31.418898	64.280231	62.916476	64.280231	15.949154	30.000000	0.000000	65.438669	85.680297	53.945881
2188.642000	31.546258	64.554022	63.190302	64.554022	16.038428	30.000000	0.000000	65.682038	86.061496	54.062265
2188.652000	31.832903	64.816860	63.460806	64.816860	16.151987	30.000000	0.000000	65.828059	86.491882	54.159252
2188.662000	31.951974	65.066314	63.710555	65.066314	16.234285	30.000000	0.000000	65.974081	86.897674	54.285335
2188.672000	32.021619	65.274394	63.917537	65.274394	16.298020	30.000000	0.000000	66.144439	87.241983	54.207745
2188.682000	32.148683	65.478824	64.123643	65.478824	16.370698	30.000000	0.000000	66.363472	87.598589	54.217444
2188.692000	32.367479	65.701507	64.351960	65.701507	16.463773	30.000000	0.000000	66.545998	87.942898	54.198046
2188.702000	32.460376	65.914455	64.564900	65.914455	16.533073	30.000000	0.000000	66.752862	88.225723	54.168950
2188.712000	32.493394	66.106717	64.754781	66.106717	16.586980	30.000000	0.000000	67.032737	88.434767	54.227143
2188.722000	32.549693	66.309930	64.956501	66.309930	16.647689	30.000000	0.000000	67.336948	88.631515	54.362924
2188.732000	32.632120	66.527746	65.173782	66.527746	16.716655	30.000000	0.000000	67.616823	88.815967	54.508404
2188.742000	32.632120	66.751645	65.393125	66.751645	16.772915	30.000000	0.000000	67.921034	89.037308	54.576295
2188.752000	32.701729	66.984063	65.624139	66.984063	16.843461	30.000000	0.000000	68.152235	89.234056	54.847859
2188.762000	32.755920	67.228649	65.866359	67.228649	16.914455	30.000000	0.000000	68.419941	89.430804	55.003038
2188.772000	32.829120	67.475669	66.111899	67.475669	16.989475	30.000000	0.000000	68.614637	89.713629	55.100024
2188.782000	32.952915	67.714171	66.351564	67.714171	17.071377	30.000000	0.000000	68.748490	90.021048	55.100024
2188.792000	33.115422	67.949022	66.589577	67.949022	17.159381	30.000000	0.000000	68.894511	90.377653	55.129121
2188.802000	33.403832	68.169271	66.819471	68.169271	17.266306	30.000000	0.000000	68.955354	90.734259	55.070928
2188.812000	33.609868	68.370051	67.026350	68.370051	17.353947	30.000000	0.000000	69.040533	91.078568	54.993339
2188.822000	33.664105	68.537975	67.193634	68.537975	17.406281	30.000000	0.000000	69.016196	91.422877	54.906051
2188.832000	33.766520	68.673045	67.331088	68.673045	17.458962	30.000000	0.000000	68.967522	91.631921	54.954544
2188.842000	33.860977	68.771610	67.432377	68.771610	17.501000	30.000000	0.000000	68.906680	91.939340	55.012736
2188.852000	33.945716	68.844621	67.508144	68.844621	17.534832	30.000000	0.000000	68.882343	92.025417	55.090326
2188.862000	33.945716	68.906680	67.568998	68.906680	17.550639	30.000000	0.000000	69.040533	92.209869	55.420081
2188.872000	33.976469	68.967522	67.630178	68.967522	17.571682	30.000000	0.000000	69.223060	92.197572	55.594658
2188.882000	33.996618	69.014979	67.677711	69.014979	17.587410	30.000000	0.000000	69.223060	92.197572	55.594658
2188.892000	34.033199	69.083122	67.746344	69.083122	17.611384	30.000000	0.000000	69.575945	92.295946	56.089291
2188.902000	34.066150	69.154916	67.818381	69.154916	17.635647	30.000000	0.000000	69.673293	92.394320	56.331758
2188.912000	34.093279	69.220626	67.884167	69.220626	17.657317	30.000000	0.000000	69.697630	92.615661	56.467540
2188.922000	34.147542	69.286336	67.951301	69.286336	17.683914	30.000000	0.000000	69.673293	92.886190	56.603321
2188.932000	34.448137	69.353262	68.031884	69.353262	17.755566	30.000000	0.000000	69.636787	93.205905	56.554828
2188.942000	34.652084	69.431140	68.118438	69.431140	17.812597	30.000000	0.000000	69.685461	93.537917	56.545129
2188.952000	34.812429	69.512669	68.206426	69.512669	17.862727	30.000000	0.000000	69.697630	93.943710	56.535430
2188.962000	35.038587	69.584463	68.288175	69.584463	17.922446	30.000000	0.000000	69.758472	94.251129	56.496636
2188.972000	35.260272	69.652606	68.366147	69.652606	17.980518	30.000000	0.000000	69.904494	94.509361	56.583924
2188.982000	35.340461	69.737786	68.453774	69.737786	18.017189	30.000000	0.000000	70.074852	94.890560	56.613020
2188.992000	35.367620	69.809580	68.525609	69.809580	18.040716	30.000000	0.000000	70.293884	95.148791	56.748802
2189.002000	35.426378	69.905710	68.622927	69.905710	18.076346	30.000000	0.000000	70.634601	95.431617	56.913679
2189.012000	35.493770	70.014010	68.732633	70.014010	18.116744	30.000000	0.000000	70.780623	95.689848	57.068858
2189.022000	35.573963	70.158814	68.878836	70.158814	18.168995	30.000000	0.000000	71.121340	96.034157	57.214339
2189.032000	35.650480	70.330390	69.051154	70.330390	18.227570	30.000000	0.000000	71.352541	96.366170	57.311326
2189.042000	35.757847	70.517784	69.240591	70.517784	18.296039	30.000000	0.000000	71.559404	96.771963	57.534395
2189.052000	35.889408	70.720997	69.446825	70.720997	18.373229	30.000000	0.000000	71.729763	97.239239	57.679876
2189.062000	36.069605	70.927861	69.659170	70.927861	18.460595	30.000000	0.000000	71.827111	97.743406	57.776863
2189.072000	36.278303	71.126207	69.864670	71.126207	18.551293	30.000000	0.000000	71.887953	98.235276	57.835055
2189.082000	36.556944	71.309951	70.059491	71.309951	18.651559	30.000000	0.000000	71.912290	98.751740	57.912644
2189.092000	36.691528	71.477876	70.231415	71.477876	18.720837	30.000000	0.000000	71.973132	99.280500	58.009631
2189.102000	36.813906	71.619030	70.376438	71.619030	18.780918	30.000000	0.000000	72.046143	99.772370	58.155112
2189.112000	36.897598	71.749233	70.508719	71.749233	18.830900	30.000000	0.000000	72.082648	100.227350	58.310291
2189.122000	37.140393	71.855098	70.625364	71.855098	18.904724	30.000000	0.000000	72.179996	100.571659	58.397579
2189.132000	37.220617	71.948795	70.721632	71.948795	18.944615	30.000000	0.000000	72.289512	101.002045	58.581854
2189.142000	37.220617	72.033975	70.805358	72.033975	18.967043	30.000000	0.000000	72.411197	101.358651	58.707937
2189.152000	37.220617	72.121587	70.891477	72.121587	18.990112	30.000000	0.000000	72.605892	101.678367	58.901911
2189.162000	37.310152	72.209200	70.982272	72.209200	19.030256	30.000000	0.000000	72.703240	102.022676	59.008596
2189.172000	37.557797	72.299247	71.083745	72.299247	19.101295	30.000000	0.000000	72.788419	102.342392	59.027994
2189.182000	37.612206	72.388077	71.173933	72.388077	19.135175	30.000000	0.000000	72.800588	102.662107	58.834020
2189.192000	37.698010	72.462304	71.251418	72.462304	19.171235	30.000000	0.000000	72.715408	102.969526	58.795225
2189.202000	37.825416	72.517063	71.311954	72.517063	19.210159	30.000000	0.000000	72.593724	103.227758	58.746732
2189.212000	37.940020	72.566953	71.367042	72.566953	19.245379	30.000000	0.000000	72.581555	103.436803	58.640046
2189.222000	38.025379	72.603459	71.407436	72.603459	19.271462	30.000000	0.000000	72.545050	103.510583	58.659444
2189.232000	38.040210	72.630229	71.434547	72.630229	19.281419	30.000000	0.000000	72.557218	103.584364	58.688540
2189.242000	38.061871	72.658217	71.463214	72.658217	19.293015	30.000000	0.000000	72.691072	103.596661	58.863116
2189.252000	38.085570	72.702023	71.507550	72.702023	19.309209	30.000000	0.000000	73.043957	103.584364	59.134679
2189.262000	38.102096	72.756781	71.562280	72.756781	19.326935	30.000000	0.000000	73.250821	103.596661	59.163775
2189.272000	38.129309	72.823708	71.629545	72.823708	19.349960	30.000000	0.000000	73.457685	103.707332	59.270461
2189.282000	38.178590	72.889418	71.696782	72.889418	19.376932	30.000000	0.000000	73.457685	103.707332	59.270461
2189.292000	38.233018	73.003801	71.812176	73.003801	19.417862	30.000000	0.000000	73.859244	104.150015	59.367448
2189.302000	38.573680	73.138871	71.963125	73.138871	19.519814	30.000000	0.000000	73.944423	104.506621	59.328653
2189.312000	38.703175	73.287326	72.116086	73.287326	19.584601	30.000000	0.000000	74.066108	104.900117	59.318954
2189.322000	38.927121	73.446733	72.284898	73.446733	19.670840	30.000000	0.000000	74.139119	105.367394	59.231666
2189.332000	39.136367	73.613441	72.460169	73.613441	19.756383	30.000000	0.000000	74.224298	105.834671	59.251064
2189.342000	39.526268	73.775282	72.640409	73.775282	19.876256	30.000000	0.000000	74.309477	106.326541	59.221968
2189.352000	39.606496	73.906701	72.774126	73.906701	19.927430	30.000000	0.000000	74.358151	106.769224	59.289858
2189.362000	39.691968	74.034470	72.904546	74.034470	19.978711	30.000000	0.000000	74.528510	107.224204	59.280160
2189.372000	39.755647	74.152504	73.024220	74.152504	20.023126	30.000000	0.000000	74.638026	107.642294	59.377147
2189.382000	39.913834	74.292441	73.170594	74.292441	20.092189	30.000000	0.000000	74.857058	107.962010	59.464435
2189.392000	40.004749	74.406825	73.288183	74.406825	20.141134	30.000000	0.000000	75.003080	108.318616	59.590518
2189.402000	40.095663	74.530943	73.415378	74.530943	20.192776	30.000000	0.000000	75.185607	108.638332	59.735998
2189.412000	40.095663	74.664796	73.547227	74.664796	20.229041	30.000000	0.000000	75.404639	108.958047	59.881479
2189.422000	40.225101	74.805951	73.693333	74.805951	20.293079	30.000000	0.000000	75.550661	109.339247	60.017260
2189.432000	40.325500	74.954406	73.845073	74.954406	20.353405	30.000000	0.000000	75.708851	109.671259	60.182138
2189.442000	40.409346	75.104078	73.997127	75.104078	20.410834	30.000000	0.000000	75.806198	110.064756	60.298522
2189.452000	40.540296	75.245232	74.143397	75.245232	20.475469	30.000000	0.000000	75.769693	110.458252	60.414907
2189.462000	40.684036	75.359616	74.264020	75.359616	20.535490	30.000000	0.000000	75.672345	110.913232	60.492496
2189.472000	40.836868	75.442361	74.353990	75.442361	20.588809	30.000000	0.000000	75.465481	111.306729	60.540990
2189.482000	40.976960	75.473999	74.392904	75.473999	20.625674	30.000000	0.000000	75.173438	111.675632	60.570086
2189.492000	41.080649	75.475216	74.399828	75.475216	20.646909	30.000000	0.000000	75.015248	112.056831	60.482797
2189.502000	41.193459	75.447229	74.378467	75.447229	20.661993	30.000000	0.000000	74.905732	112.253580	60.395509
2189.512000	41.237296	75.392471	74.326904	75.392471	20.655829	30.000000	0.000000	74.857058	112.401141	60.395509
2189.522000	41.322866	75.329195	74.269241	75.329195	20.655722	30.000000	0.000000	74.917900	112.474921	60.424605
2189.532000	41.322866	75.275653	74.216453	75.275653	20.641041	30.000000	0.000000	75.173438	112.499515	60.453701
2189.542000	41.363043	75.228196	74.171877	75.228196	20.636109	30.000000	0.000000	75.331628	112.560999	60.511894
2189.552000	41.377493	75.197775	74.142679	75.197775	20.630669	30.000000	0.000000	75.465481	112.548702	60.705867
2189.562000	41.417666	75.192908	74.140092	75.192908	20.637411	30.000000	0.000000	75.623671	112.610186	60.589483
2189.572000	41.444924	75.218462	74.166790	75.218462	20.649907	30.000000	0.000000	75.721019	112.733153	60.667073
2189.582000	41.592436	75.284171	74.239717	75.284171	20.697652	30.000000	0.000000	75.830535	112.868418	60.705867
2189.592000	41.654430	75.375435	74.333138	75.375435	20.735246	30.000000	0.000000	75.927883	113.077463	60.676771
2189.602000	41.785369	75.482517	74.445985	75.482517	20.791157	30.000000	0.000000	75.976557	113.680004	60.521592
2189.612000	41.923796	75.589600	74.559271	75.589600	20.848669	30.000000	0.000000	75.927883	113.987423	60.444003
2189.622000	42.322512	75.684514	74.675039	75.684514	20.955714	30.000000	0.000000	75.867041	114.257952	60.366413
2189.632000	42.433696	75.755091	74.750862	75.755091	20.997844	30.000000	0.000000	75.879209	114.589965	60.347016
2189.642000	42.433696	75.822017	74.816901	75.822017	21.016394	30.000000	0.000000	76.000894	114.737526	60.385811
2189.652000	42.599516	75.888944	74.892187	75.888944	21.068707	30.000000	0.000000	76.134747	114.934274	60.434304
2189.662000	42.635845	75.952220	74.956660	75.952220	21.093679	30.000000	0.000000	76.256432	115.094132	60.453701
2189.672000	42.657874	76.033749	75.038352	76.033749	21.120817	30.000000	0.000000	76.536306	115.253990	60.657374
2189.682000	42.694202	76.116494	75.122047	76.116494	21.151225	30.000000	0.000000	76.657991	115.450738	60.831950
2189.692000	42.748747	76.200457	75.207968	76.200457	21.185714	30.000000	0.000000	76.767507	115.647487	60.987129
2189.702000	42.828940	76.284419	75.295336	76.284419	21.225484	30.000000	0.000000	76.816181	115.918016	60.977431
2189.712000	43.007547	76.369598	75.389446	76.369598	21.285825	30.000000	0.000000	76.779676	116.213138	61.006527
2189.722000	43.098408	76.455994	75.479846	76.455994	21.328574	30.000000	0.000000	76.731002	116.532854	61.016225
2189.732000	43.309486	76.536306	75.571028	76.536306	21.394411	30.000000	0.000000	76.682328	116.827976	60.987129
2189.742000	43.520847	76.603233	75.649041	76.603233	21.456677	30.000000	0.000000	76.670159	117.135395	60.899841
2189.752000	43.626882	76.660425	75.711512	76.660425	21.494575	30.000000	0.000000	76.706665	117.418221	60.899841
2189.762000	43.724997	76.709098	75.765134	76.709098	21.528486	30.000000	0.000000	76.743170	117.627266	60.928937
2189.772000	43.787162	76.738303	75.797497	76.738303	21.549529	30.000000	0.000000	76.828349	117.774827	60.928937
2189.782000	43.856231	76.771158	75.833861	76.771158	21.573037	30.000000	0.000000	76.986540	117.983872	61.006527
2189.792000	43.910793	76.814964	75.880225	76.814964	21.596639	30.000000	0.000000	77.205572	118.069950	61.074418
2189.802000	43.932559	76.879457	75.945168	76.879457	21.619279	30.000000	0.000000	77.461110	118.266698	61.122911
2189.812000	43.976449	76.971937	76.039018	76.971937	21.654389	30.000000	0.000000	77.704479	118.426556	61.200501
2189.822000	44.043784	77.097273	76.166666	77.097273	21.703641	30.000000	0.000000	77.984354	118.660195	61.287789
2189.832000	44.118753	77.244511	76.316402	77.244511	21.760700	30.000000	0.000000	78.154712	118.955317	61.326584
2189.842000	44.261118	77.413653	76.491651	77.413653	21.838068	30.000000	0.000000	78.361576	119.336517	61.442968
2189.852000	44.261118	77.593746	76.669600	77.593746	21.888871	30.000000	0.000000	78.507598	119.742310	61.413872
2189.862000	44.891610	77.778707	76.888617	77.778707	22.073438	30.000000	0.000000	78.592777	120.135807	61.384776
2189.872000	44.990091	77.962450	77.075942	77.962450	22.146335	30.000000	0.000000	78.665788	120.701459	61.297488
2189.882000	45.246712	78.119424	77.245977	78.119424	22.245136	30.000000	0.000000	78.556272	121.648310	61.025924
2189.892000	45.380195	78.254494	77.387278	78.254494	22.311861	30.000000	0.000000	78.556272	121.648310	61.025924
2189.902000	45.434775	78.338456	77.473479	78.338456	22.347373	30.000000	0.000000	78.300734	122.386116	60.744662
2189.912000	45.495314	78.398082	77.535965	78.398082	22.377230	30.000000	0.000000	78.300734	122.619755	60.657374
2189.922000	45.516990	78.440671	77.579347	78.440671	22.393989	30.000000	0.000000	78.410250	122.755020	60.851348
2189.932000	45.516990	78.485695	77.623876	78.485695	22.406843	30.000000	0.000000	78.604946	122.853394	61.103514
2189.942000	45.546032	78.527067	77.666486	78.527067	22.424829	30.000000	0.000000	78.775304	122.964065	61.413872
2189.952000	45.573323	78.567223	77.707792	78.567223	22.442102	30.000000	0.000000	78.909157	123.062439	61.646640
2189.962000	45.604470	78.600078	77.742103	78.600078	22.458117	30.000000	0.000000	78.921326	123.271484	61.918204
2189.972000	45.660229	78.624415	77.769426	78.624415	22.476944	30.000000	0.000000	78.909157	123.554310	61.995793
2189.982000	45.780974	78.647535	77.799341	78.647535	22.509280	30.000000	0.000000	78.787473	123.874026	61.995793
2189.992000	45.999613	78.652403	77.816922	78.652403	22.557283	30.000000	0.000000	78.604946	124.218336	61.879409
2190.002000	46.187734	78.665788	77.841158	78.665788	22.601258	30.000000	0.000000	78.434587	124.476568	61.763025
2190.012000	46.403176	78.668222	77.856163	78.668222	22.647952	30.000000	0.000000	78.325071	124.919252	61.666038
2190.022000	46.563357	78.656053	77.853490	78.656053	22.678661	30.000000	0.000000	78.288565	125.116000	61.627243
2190.032000	46.625726	78.639017	77.840277	78.639017	22.687071	30.000000	0.000000	78.434587	125.300452	61.627243
2190.042000	46.676396	78.612247	77.816742	78.612247	22.690169	30.000000	0.000000	78.507598	125.398826	61.724230
2190.052000	46.690930	78.604946	77.810365	78.604946	22.691166	30.000000	0.000000	78.836146	125.448013	61.860012
2190.062000	46.705465	78.628066	77.834102	78.628066	22.700946	30.000000	0.000000	79.152527	125.558684	61.860012
2190.072000	46.750444	78.685257	77.893351	78.685257	22.727075	30.000000	0.000000	79.481075	125.693949	62.189767
2190.082000	46.780561	78.780171	77.989075	78.780171	22.760937	30.000000	0.000000	79.736613	125.902994	62.315850
2190.092000	46.856739	78.907940	78.120036	78.907940	22.814191	30.000000	0.000000	79.882635	126.235007	62.383741
2190.102000	46.977587	79.052745	78.270509	79.052745	22.882033	30.000000	0.000000	79.882635	126.640800	62.432235
2190.112000	47.245837	79.192682	78.424891	79.192682	22.980332	30.000000	0.000000	79.724444	127.120375	62.412837
2190.122000	47.497454	79.321668	78.567509	79.321668	23.072103	30.000000	0.000000	79.578423	127.636839	62.315850
2190.132000	47.729624	79.410498	78.669253	79.410498	23.148175	30.000000	0.000000	79.322885	128.079523	62.121876
2190.142000	47.899369	79.472557	78.740806	79.472557	23.203044	30.000000	0.000000	79.128190	128.497614	62.024889
2190.152000	48.059446	79.495677	78.773220	79.495677	23.244506	30.000000	0.000000	79.067347	128.694362	61.947300
2190.162000	48.067315	79.496894	78.774894	79.496894	23.246569	30.000000	0.000000	79.164695	129.050969	61.995793
2190.172000	48.058548	79.484726	78.762315	79.484726	23.241109	30.000000	0.000000	79.359390	129.173937	62.024889
2190.182000	48.058548	79.476208	78.753874	79.476208	23.238618	30.000000	0.000000	79.651434	129.284608	62.131575
2190.192000	48.081859	79.478641	78.757671	79.478641	23.244385	30.000000	0.000000	79.906971	129.370685	62.257658
2190.202000	48.081859	79.517581	78.796256	79.517581	23.255773	30.000000	0.000000	80.272025	129.493653	62.354645
2190.212000	48.109153	79.602760	78.882287	79.602760	23.286613	30.000000	0.000000	80.576237	129.714995	62.335248
2190.222000	48.140336	79.728095	79.008346	79.728095	23.330063	30.000000	0.000000	80.831775	129.985524	62.568016
2190.232000	48.467068	79.892369	79.190658	79.892369	23.449407	30.000000	0.000000	80.965628	130.317537	62.548619
2190.242000	48.680728	80.073679	79.383180	80.073679	23.549376	30.000000	0.000000	80.941291	130.735628	62.509824
2190.252000	49.002622	80.241604	79.569005	80.241604	23.669403	30.000000	0.000000	80.746596	131.264389	62.548619
2190.262000	49.002622	80.366940	79.693289	80.366940	23.706374	30.000000	0.000000	80.418047	131.743964	62.509824
2190.272000	49.398604	80.446035	79.795609	80.446035	23.816921	30.000000	0.000000	80.150341	132.174351	62.422536
2190.282000	49.499070	80.471588	79.827023	80.471588	23.846639	30.000000	0.000000	79.906971	132.518661	62.335248
2190.292000	49.537005	80.460637	79.818450	80.460637	23.851758	30.000000	0.000000	79.797455	132.740003	62.306152
2190.302000	49.559517	80.415613	79.775145	80.415613	23.843373	30.000000	0.000000	79.821792	132.813784	62.335248
2190.312000	49.560248	80.358422	79.718453	80.358422	23.826577	30.000000	0.000000	80.004319	132.936752	62.432235
2190.322000	49.561345	80.302447	79.662990	80.302447	23.810221	30.000000	0.000000	80.272025	132.973642	62.606811
2190.332000	49.562080	80.267158	79.628027	80.267158	23.799920	30.000000	0.000000	80.612743	132.973642	62.820182
2190.342000	49.570033	80.258640	79.620056	80.258640	23.799144	30.000000	0.000000	80.856112	133.072016	63.004457
2190.352000	49.602092	80.309748	79.672689	80.309748	23.821356	30.000000	0.000000	81.257671	133.490107	63.120842
2190.362000	49.672585	80.401011	79.767485	80.401011	23.863965	30.000000	0.000000	81.330682	133.883604	63.343912
2190.372000	49.771092	80.517829	79.889339	80.517829	23.920388	30.000000	0.000000	81.318514	134.363179	63.188733
2190.382000	50.065919	80.658983	80.047263	80.658983	24.027574	30.000000	0.000000	81.318514	134.363179	63.188733
2190.392000	50.427909	80.774583	80.183982	80.774583	24.142322	30.000000	0.000000	80.953460	135.346921	62.752291
2190.402000	50.716603	80.860979	80.287325	80.860979	24.232326	30.000000	0.000000	80.685753	135.765012	62.548619
2190.412000	50.924210	80.912087	80.350729	80.912087	24.293861	30.000000	0.000000	80.515395	136.084729	62.432235
2190.422000	50.970161	80.931556	80.372867	80.931556	24.309943	30.000000	0.000000	80.466721	136.269180	62.393440
2190.432000	50.986805	80.925472	80.367840	80.925472	24.311824	30.000000	0.000000	80.551900	136.367555	62.480728
2190.442000	50.965482	80.914521	80.355663	80.914521	24.303784	30.000000	0.000000	80.746596	136.281477	62.645606
2190.452000	50.959526	80.892617	80.333548	80.892617	24.295879	30.000000	0.000000	81.038639	136.330664	62.878374
2190.462000	50.951489	80.892617	80.333058	80.892617	24.294089	30.000000	0.000000	81.330682	136.342961	63.130540
2190.472000	50.951489	80.925472	80.365686	80.925472	24.303957	30.000000	0.000000	81.647062	136.404445	63.314816
2190.482000	50.959526	80.969279	80.409680	80.969279	24.318904	30.000000	0.000000	81.756579	136.613490	63.489392
2190.492000	50.974089	81.047157	80.487910	81.047157	24.345544	30.000000	0.000000	81.732242	136.945504	63.566982
2190.502000	51.072569	81.134770	80.580943	81.134770	24.393860	30.000000	0.000000	81.561883	137.326704	63.440899
2190.512000	51.651508	81.215082	80.696198	81.215082	24.547592	30.000000	0.000000	81.318514	137.769389	63.586379
2190.522000	51.959141	81.269840	80.769504	81.269840	24.633141	30.000000	0.000000	81.014302	138.248963	63.373008
2190.532000	52.047208	81.286876	80.791849	81.286876	24.658073	30.000000	0.000000	80.722259	138.691648	63.256623
2190.542000	52.126757	81.266189	80.776180	81.266189	24.669654	30.000000	0.000000	80.539732	138.986771	63.140239
2190.552000	52.174865	81.206564	80.719870	81.206564	24.662347	30.000000	0.000000	80.442384	139.195816	63.120842
2190.562000	52.197536	81.120168	80.635383	81.120168	24.641190	30.000000	0.000000	80.466721	139.306487	63.217829
2190.572000	52.197536	81.020386	80.536198	81.020386	24.610880	30.000000	0.000000	80.649248	139.306487	63.343912
2190.582000	52.212091	80.942508	80.459677	80.942508	24.590479	30.000000	0.000000	80.977797	139.331081	63.508789
2190.592000	52.203973	80.893834	80.410796	80.893834	24.573877	30.000000	0.000000	81.245503	139.269597	63.693065
2190.602000	52.220618	80.882883	80.400929	80.882883	24.574270	30.000000	0.000000	81.452367	139.466345	63.848244
2190.612000	52.235175	80.904786	80.423593	80.904786	24.584180	30.000000	0.000000	81.537546	139.601610	63.964628
2190.622000	52.370875	80.959544	80.486342	80.959544	24.631185	30.000000	0.000000	81.561883	139.822952	64.003423
2190.632000	52.573573	81.030121	80.568947	81.030121	24.698078	30.000000	0.000000	81.428030	140.167263	63.935532
2190.642000	52.939240	81.110433	80.671286	81.110433	24.804650	30.000000	0.000000	81.342851	140.486979	63.848244
2190.652000	53.250381	81.194395	80.773965	81.194395	24.900323	30.000000	0.000000	81.282008	140.868180	63.654270
2190.662000	53.417328	81.277141	80.866586	81.277141	24.963323	30.000000	0.000000	81.294177	141.163303	63.722161
2190.672000	53.496936	81.370838	80.964731	81.370838	25.010069	30.000000	0.000000	81.586220	141.581394	63.615475
2190.682000	53.528399	81.460885	81.056276	81.460885	25.044856	30.000000	0.000000	81.878263	141.753549	63.683366
2190.692000	53.536572	81.557016	81.152436	81.557016	25.076260	30.000000	0.000000	82.206812	141.888813	63.741558
2190.702000	53.534670	81.632460	81.227388	81.632460	25.099026	30.000000	0.000000	82.206812	141.888813	63.741558
2190.712000	53.524319	81.772398	81.365988	81.772398	25.139704	30.000000	0.000000	82.936920	142.208530	63.906436
2190.722000	53.559755	81.934238	81.529231	81.934238	25.197515	30.000000	0.000000	83.180289	142.491356	64.042218
2190.732000	53.587012	82.111898	81.707713	82.111898	25.258361	30.000000	0.000000	83.204626	142.749589	64.042218
2190.742000	53.641523	82.289558	81.887908	82.289558	25.325459	30.000000	0.000000	83.119447	143.241461	64.090711
2190.752000	54.094743	82.450181	82.076172	82.450181	25.478676	30.000000	0.000000	82.888246	143.671848	64.051916
2190.762000	54.283097	82.584034	82.221262	82.584034	25.563282	30.000000	0.000000	82.632708	144.114533	63.954929
2190.772000	54.450363	82.664346	82.311754	82.664346	25.626603	30.000000	0.000000	82.389339	144.508031	63.877340
2190.782000	54.536056	82.704502	82.357140	82.704502	25.658772	30.000000	0.000000	82.279823	144.803154	63.819148
2190.792000	54.693186	82.710587	82.373108	82.710587	25.696838	30.000000	0.000000	82.267654	144.999902	63.663969
2190.802000	54.707620	82.728839	82.392196	82.728839	25.705833	30.000000	0.000000	82.389339	145.135167	63.935532
2190.812000	54.716002	82.694768	82.358792	82.694768	25.697176	30.000000	0.000000	82.596203	145.208948	63.984025
2190.822000	54.716002	82.664346	82.328494	82.664346	25.687723	30.000000	0.000000	82.876078	145.307322	64.090711
2190.832000	54.743243	82.652178	82.318093	82.652178	25.690212	30.000000	0.000000	83.082942	145.381103	64.197397
2190.842000	54.757812	82.678949	82.345674	82.678949	25.701887	30.000000	0.000000	83.387153	145.528665	64.226493
2190.852000	54.780633	82.749526	82.417407	82.749526	25.729086	30.000000	0.000000	83.594017	145.774601	64.187698
2190.862000	54.820545	82.863909	82.533854	82.863909	25.773863	30.000000	0.000000	83.776544	146.032833	64.168301
2190.872000	54.914480	83.012365	82.687668	83.012365	25.841762	30.000000	0.000000	83.873892	146.389441	64.042218
2190.882000	55.371945	83.179073	82.882782	83.179073	25.999753	30.000000	0.000000	83.946903	146.758344	63.857942
2190.892000	55.591424	83.354299	83.071369	83.354299	26.105587	30.000000	0.000000	84.019914	147.164139	63.654270
2190.902000	55.704266	83.522223	83.245932	83.522223	26.184498	30.000000	0.000000	84.068588	147.483856	63.557283
2190.912000	55.875536	83.680414	83.414566	83.680414	26.274131	30.000000	0.000000	84.178104	147.803572	63.450597
2190.922000	55.952870	83.824002	83.562659	83.824002	26.337333	30.000000	0.000000	84.311957	148.098696	63.392405
2190.932000	55.952870	83.967589	83.705800	83.967589	26.382448	30.000000	0.000000	84.518821	148.270851	63.382706
2190.942000	56.076470	84.102659	83.848408	84.102659	26.453948	30.000000	0.000000	84.737854	148.418412	63.343912
2190.952000	56.099359	84.232862	83.979694	84.232862	26.500294	30.000000	0.000000	84.896044	148.602864	63.508789
2190.962000	56.147562	84.352113	84.101701	84.352113	26.549183	30.000000	0.000000	84.969055	148.750426	63.644571
2190.972000	56.191401	84.457979	84.210089	84.457979	26.592859	30.000000	0.000000	84.932549	148.922581	63.751257
2190.982000	56.268738	84.540724	84.297601	84.540724	26.637204	30.000000	0.000000	84.774359	149.070143	63.848244
2190.992000	56.408853	84.612518	84.378275	84.612518	26.693002	30.000000	0.000000	84.737854	149.242298	63.945231
2191.002000	56.517716	84.666060	84.438736	84.666060	26.735697	30.000000	0.000000	84.604000	149.463640	63.935532
2191.012000	56.586790	84.707432	84.484485	84.707432	26.765146	30.000000	0.000000	84.591832	149.648093	64.139205
2191.022000	56.726916	84.740287	84.526364	84.740287	26.808790	30.000000	0.000000	84.640506	149.795654	64.042218
2191.032000	56.814857	84.762191	84.553932	84.762191	26.836608	30.000000	0.000000	84.737854	149.955513	64.177999
2191.042000	56.958961	84.797479	84.598516	84.797479	26.882035	30.000000	0.000000	85.090739	150.238339	64.274986
2191.052000	56.986168	84.835201	84.637922	84.835201	26.900465	30.000000	0.000000	85.273266	150.447385	64.294384
2191.062000	57.044550	84.891176	84.697574	84.891176	26.932113	30.000000	0.000000	85.528804	150.582649	64.236191
2191.072000	57.111308	84.950802	84.761420	84.950802	26.966937	30.000000	0.000000	85.528804	150.582649	64.236191
2191.082000	57.412175	85.060318	84.890363	85.060318	27.073525	30.000000	0.000000	85.869521	151.111412	64.071314
2191.092000	57.483176	85.183220	85.017671	85.183220	27.129626	30.000000	0.000000	85.966869	151.504910	63.925833
2191.102000	57.568930	85.329241	85.169038	85.329241	27.196685	30.000000	0.000000	86.064217	151.763143	63.945231
2191.112000	57.736276	85.486215	85.336726	85.486215	27.286913	30.000000	0.000000	86.161565	152.119750	63.867641
2191.122000	57.943203	85.638320	85.502211	85.638320	27.385287	30.000000	0.000000	86.161565	152.353389	63.945231
2191.132000	58.020564	85.800161	85.668908	85.800161	27.455710	30.000000	0.000000	86.356260	152.685403	64.110108
2191.142000	58.108132	85.931581	85.805925	85.931581	27.518935	30.000000	0.000000	86.404934	152.968230	64.090711
2191.152000	58.181302	86.049615	85.928639	86.049615	27.574453	30.000000	0.000000	86.453608	153.275650	64.294384
2191.162000	58.323500	86.136011	86.024358	86.136011	27.636618	30.000000	0.000000	86.392766	153.583070	64.313781
2191.172000	58.419893	86.206588	86.101253	86.206588	27.682664	30.000000	0.000000	86.234576	153.829006	64.478659
2191.182000	58.474249	86.222407	86.120668	86.222407	27.700946	30.000000	0.000000	86.027712	154.136426	64.575646
2191.192000	58.572684	86.209022	86.113847	86.209022	27.720554	30.000000	0.000000	85.833016	154.382362	64.653235
2191.202000	58.782096	86.173733	86.092529	86.173733	27.760074	30.000000	0.000000	85.711331	154.591408	64.595043
2191.212000	58.782096	86.129927	86.048764	86.129927	27.745962	30.000000	0.000000	85.723500	154.726673	64.672633
2191.222000	58.878516	86.093421	86.018704	86.093421	27.757613	30.000000	0.000000	85.796511	154.800454	64.653235
2191.232000	58.905686	86.054482	85.981605	86.054482	27.751653	30.000000	0.000000	85.966869	154.849641	64.759921
2191.242000	58.926417	86.036229	85.964746	86.036229	27.750798	30.000000	0.000000	86.222407	154.911125	64.808414
2191.252000	58.957926	86.041097	85.971704	86.041097	27.760016	30.000000	0.000000	86.502282	154.935719	64.837510
2191.262000	58.985094	86.076385	86.008771	86.076385	27.778000	30.000000	0.000000	86.745651	155.070984	64.915100
2191.272000	58.985094	86.149396	86.081725	86.149396	27.801561	30.000000	0.000000	86.964684	155.243139	64.886004
2191.282000	59.070947	86.260129	86.198094	86.260129	27.858194	30.000000	0.000000	87.135042	155.562856	64.924799
2191.292000	59.676800	86.397633	86.375998	86.397633	28.050467	30.000000	0.000000	87.208053	155.882573	64.818113
2191.302000	59.912884	86.548522	86.542678	86.548522	28.157251	30.000000	0.000000	87.220222	156.239180	64.662934
2191.312000	60.094755	86.698194	86.704564	86.698194	28.250574	30.000000	0.000000	87.220222	156.583491	64.391371
2191.322000	60.246001	86.842999	86.859566	86.842999	28.334954	30.000000	0.000000	87.244559	157.038473	64.207095
2191.332000	60.339938	86.978069	87.001001	86.978069	28.402171	30.000000	0.000000	87.317570	157.333597	64.071314
2191.342000	60.409281	87.102188	87.129840	87.102188	28.459816	30.000000	0.000000	87.463591	157.616423	64.022820
2191.352000	60.423830	87.209270	87.237942	87.209270	28.498400	30.000000	0.000000	87.573107	157.800875	64.129506
2191.362000	60.440400	87.312702	87.342531	87.312702	28.536300	30.000000	0.000000	87.779971	157.936140	64.197397
2191.372000	60.471519	87.412484	87.444458	87.412484	28.576622	30.000000	0.000000	87.962499	158.059108	64.284685
2191.382000	60.471519	87.495229	87.527234	87.495229	28.603673	30.000000	0.000000	87.962499	158.243561	64.604742
2191.392000	60.490634	87.563373	87.596702	87.563373	28.630694	30.000000	0.000000	87.889488	158.440310	64.740524
2191.402000	60.695058	87.586493	87.633736	87.586493	28.689024	30.000000	0.000000	87.451423	158.895292	64.808414
2191.412000	60.881462	87.587710	87.647641	87.587710	28.735746	30.000000	0.000000	87.232390	159.079744	64.856908
2191.422000	60.881462	87.574324	87.634246	87.574324	28.731355	30.000000	0.000000	87.110706	159.301087	64.847209
2191.432000	61.038194	87.553638	87.624215	87.553638	28.763523	30.000000	0.000000	87.110706	159.301087	64.847209
2191.442000	61.184937	87.515916	87.596452	87.515916	28.787605	30.000000	0.000000	87.086369	159.583913	64.895703
2191.452000	61.245738	87.468459	87.553089	87.468459	28.787103	30.000000	0.000000	87.098537	159.583913	64.944196
2191.462000	61.289403	87.401532	87.489068	87.401532	28.775921	30.000000	0.000000	87.110706	159.682288	65.079978
2191.472000	61.308550	87.323654	87.412413	87.323654	28.755032	30.000000	0.000000	87.183716	159.743772	65.138170
2191.482000	61.348243	87.257944	87.349333	87.257944	28.743238	30.000000	0.000000	87.305401	159.805256	65.235157
2191.492000	61.446761	87.208053	87.306079	87.208053	28.751227	30.000000	0.000000	87.390580	159.903630	65.303048
2191.502000	61.497011	87.216571	87.318019	87.216571	28.766496	30.000000	0.000000	87.536602	160.038895	65.351541
2191.512000	61.582974	87.260378	87.367719	87.260378	28.802277	30.000000	0.000000	87.670455	160.223348	65.235157
2191.522000	61.703977	87.329738	87.445399	87.329738	28.855233	30.000000	0.000000	87.804308	160.481581	65.390336
2191.532000	62.041232	87.410050	87.548802	87.410050	28.965694	30.000000	0.000000	87.913825	160.776704	65.312746
2191.542000	62.208475	87.502530	87.652849	87.502530	29.038034	30.000000	0.000000	88.011172	161.121015	65.283650
2191.552000	62.328181	87.597444	87.756112	87.597444	29.099420	30.000000	0.000000	88.047678	161.477623	65.254554
2191.562000	62.588164	87.699660	87.876323	87.699660	29.198404	30.000000	0.000000	88.132857	161.846527	65.235157
2191.572000	62.724437	87.800658	87.986877	87.800658	29.266175	30.000000	0.000000	88.193700	162.227729	65.225458
2191.582000	62.795108	87.899223	88.090507	87.899223	29.316763	30.000000	0.000000	88.291047	162.572040	65.254554
2191.592000	62.904314	87.996570	88.195582	87.996570	29.376672	30.000000	0.000000	88.364058	162.904054	65.225458
2191.602000	62.965127	88.089051	88.292463	88.089051	29.422846	30.000000	0.000000	88.461406	163.199177	65.351541
2191.612000	63.034615	88.177881	88.386292	88.177881	29.470022	30.000000	0.000000	88.558754	163.506598	65.497022
2191.622000	63.111950	88.259409	88.473355	88.259409	29.516774	30.000000	0.000000	88.619596	163.740237	65.603707
2191.632000	63.111950	88.342155	88.556302	88.342155	29.544446	30.000000	0.000000	88.741281	164.047658	65.739489
2191.642000	63.266608	88.420033	88.645075	88.420033	29.609582	30.000000	0.000000	88.789955	164.330485	65.846175
2191.652000	63.442640	88.493044	88.730474	88.493044	29.678584	30.000000	0.000000	88.777786	164.637905	66.001354
2191.662000	63.578940	88.540501	88.787516	88.540501	29.729031	30.000000	0.000000	88.607428	164.957623	66.078943
2191.672000	63.685287	88.556320	88.810763	88.556320	29.761301	30.000000	0.000000	88.351890	165.289637	66.127437
2191.682000	63.821585	88.533200	88.797040	88.533200	29.788086	30.000000	0.000000	88.059846	165.474089	66.137136
2191.692000	63.928874	88.484526	88.755670	88.484526	29.798904	30.000000	0.000000	87.877319	165.670838	66.040149
2191.702000	63.998403	88.407865	88.683597	88.407865	29.790701	30.000000	0.000000	87.694792	165.769213	65.952860
2191.712000	63.998403	88.333637	88.609138	88.333637	29.765689	30.000000	0.000000	87.816477	165.806103	65.923764
2191.722000	64.025434	88.269144	88.546317	88.269144	29.750795	30.000000	0.000000	87.974667	165.769213	65.991655
2191.732000	64.028178	88.219253	88.496460	88.219253	29.734673	30.000000	0.000000	88.242373	165.707729	66.108039
2191.742000	64.044686	88.190049	88.468306	88.190049	29.729002	30.000000	0.000000	88.497911	165.621651	66.098341
2191.752000	64.055209	88.190049	88.469035	88.190049	29.731662	30.000000	0.000000	88.777786	165.683135	66.234122
2191.762000	64.094967	88.227771	88.509630	88.227771	29.754434	30.000000	0.000000	88.984650	165.732322	66.272917
2191.772000	64.405157	88.311734	88.615379	88.311734	29.861316	30.000000	0.000000	89.191514	166.015149	66.292315
2191.782000	64.759868	88.427334	88.756041	88.427334	29.990457	30.000000	0.000000	89.215851	166.297976	66.137136
2191.792000	64.978264	88.557537	88.901949	88.557537	30.090192	30.000000	0.000000	89.179346	166.666881	65.952860
2191.802000	65.096391	88.686523	89.039686	88.686523	30.164139	30.000000	0.000000	88.984650	167.084973	65.632803
2191.812000	65.362283	88.758317	89.130361	88.758317	30.256451	30.000000	0.000000	88.534417	167.699814	65.147869
2191.822000	65.402057	88.802123	89.177135	88.802123	30.281550	30.000000	0.000000	88.412732	167.859673	65.099375
2191.832000	65.409740	88.824026	89.199669	88.824026	30.290983	30.000000	0.000000	88.461406	167.908860	65.118773
2191.842000	65.398368	88.820376	89.195207	88.820376	30.286831	30.000000	0.000000	88.461406	167.908860	65.118773
2191.852000	65.382754	88.833761	89.207555	88.833761	30.287403	30.000000	0.000000	88.911639	167.773595	65.526118
2191.862000	65.379063	88.854448	89.228070	88.854448	30.293512	30.000000	0.000000	89.191514	167.724408	65.768585
2191.872000	65.379063	88.878785	89.252509	88.878785	30.301809	30.000000	0.000000	89.434884	167.798189	65.943162
2191.882000	65.382754	88.917724	89.291871	88.917724	30.316029	30.000000	0.000000	89.605242	167.896563	66.069245
2191.892000	65.406051	88.967614	89.343606	88.967614	30.339005	30.000000	0.000000	89.678253	168.228578	66.117738
2191.902000	65.561711	89.032107	89.419299	89.032107	30.400899	30.000000	0.000000	89.629579	168.572889	66.030450
2191.912000	66.210576	89.136756	89.570068	89.136756	30.603363	30.000000	0.000000	89.580905	168.978684	65.836476
2191.922000	66.447506	89.238971	89.689497	89.238971	30.699492	30.000000	0.000000	89.434884	169.421370	65.642502
2191.932000	66.583863	89.331452	89.792081	89.331452	30.766490	30.000000	0.000000	89.386210	169.827165	65.370939
2191.942000	66.680430	89.425149	89.893095	89.425149	30.823713	30.000000	0.000000	89.398378	170.122289	65.070279
2191.952000	66.703772	89.489642	89.959579	89.489642	30.851979	30.000000	0.000000	89.556569	170.282148	64.982991
2191.962000	66.703772	89.549267	90.019518	89.549267	30.872536	30.000000	0.000000	89.787770	170.380522	64.934497
2191.972000	66.703772	89.617411	90.088019	89.617411	30.896028	30.000000	0.000000	90.116318	170.405116	64.944196
2191.982000	66.703772	89.703807	90.174869	89.703807	30.925814	30.000000	0.000000	90.469204	170.417413	64.982991
2191.992000	66.693279	89.807239	90.278098	89.807239	30.958749	30.000000	0.000000	90.712574	170.405116	64.973292
2192.002000	66.693279	89.932574	90.404091	89.932574	31.001955	30.000000	0.000000	90.882932	170.429710	65.060580
2192.012000	66.747560	90.059127	90.535176	90.059127	31.059710	30.000000	0.000000	90.846427	170.540381	65.099375
2192.022000	66.824779	90.186895	90.669134	90.186895	31.123907	30.000000	0.000000	90.712574	170.712537	65.147869
2192.032000	67.041577	90.302496	90.800861	90.302496	31.220423	30.000000	0.000000	90.542215	170.823208	65.118773
2192.042000	67.233090	90.401061	90.913692	90.401061	31.304605	30.000000	0.000000	90.384025	171.056848	65.002388
2192.052000	67.438401	90.471638	90.999402	90.471638	31.382835	30.000000	0.000000	90.262340	171.192113	64.992690
2192.062000	67.501120	90.525179	91.057761	90.525179	31.417856	30.000000	0.000000	90.323182	171.229004	65.012087
2192.072000	67.524486	90.555600	91.090040	90.555600	31.434545	30.000000	0.000000	90.420530	171.265894	65.050882
2192.082000	67.538961	90.571419	91.106993	90.571419	31.443835	30.000000	0.000000	90.627394	171.290488	65.186663
2192.092000	67.569858	90.587238	91.125127	90.587238	31.457437	30.000000	0.000000	90.870764	171.290488	65.099375
2192.102000	67.596766	90.610358	91.150319	90.610358	31.472532	30.000000	0.000000	91.114133	171.302784	65.361240
2192.112000	67.643505	90.661466	91.205095	90.661466	31.502566	30.000000	0.000000	91.357503	171.413456	65.477624
2192.122000	67.744059	90.741778	91.293134	90.741778	31.556925	30.000000	0.000000	91.515693	171.634799	65.526118
2192.132000	67.962969	90.845210	91.412993	90.845210	31.650578	30.000000	0.000000	91.576535	171.880736	65.477624
2192.142000	68.256996	90.958377	91.548130	90.958377	31.767642	30.000000	0.000000	91.515693	172.188156	65.361240
2192.152000	68.450599	91.084929	91.689534	91.084929	31.863070	30.000000	0.000000	91.527861	172.569358	65.206061
2192.162000	68.644208	91.206614	91.826085	91.206614	31.956969	30.000000	0.000000	91.540030	172.901372	64.992690
2192.172000	68.753681	91.317347	91.945533	91.317347	32.024841	30.000000	0.000000	91.527861	173.184200	64.895703
2192.182000	68.812890	91.413478	92.046638	91.413478	32.074299	30.000000	0.000000	91.588704	173.368652	64.886004
2192.192000	68.863156	91.498657	92.136072	91.498657	32.117568	30.000000	0.000000	91.722557	173.589995	64.992690
2192.202000	68.863156	91.577752	92.215719	91.577752	32.145332	30.000000	0.000000	91.905084	173.676073	65.118773
2192.212000	68.882575	91.654414	92.294332	91.654414	32.177420	30.000000	0.000000	92.124117	173.811338	65.332144
2192.222000	68.901996	91.726208	92.368048	91.726208	32.207809	30.000000	0.000000	92.233633	173.934306	65.574611
2192.232000	68.930373	91.801652	92.446096	91.801652	32.241881	30.000000	0.000000	92.330981	174.057275	65.710393
2192.242000	69.026921	91.886831	92.538946	91.886831	32.297621	30.000000	0.000000	92.367486	174.241727	65.787983
2192.252000	69.182690	91.969577	92.633705	91.969577	32.368422	30.000000	0.000000	92.355318	174.573742	66.001354
2192.262000	69.574960	92.025552	92.718900	92.025552	32.493333	30.000000	0.000000	92.099780	175.213177	66.088642
2192.272000	69.770226	92.062057	92.770043	92.062057	32.558664	30.000000	0.000000	91.892916	175.582082	66.156533
2192.282000	69.913917	92.083961	92.802692	92.083961	32.605030	30.000000	0.000000	91.807736	175.852613	66.205026
2192.292000	69.977152	92.086394	92.809801	92.086394	32.622894	30.000000	0.000000	91.746894	176.135440	66.302013
2192.302000	70.063214	92.068142	92.797743	92.068142	32.639567	30.000000	0.000000	91.722557	176.381377	66.389302
2192.312000	70.118486	92.027986	92.761338	92.027986	32.640189	30.000000	0.000000	91.722557	176.553532	66.331109
2192.322000	70.118486	91.991480	92.724542	91.991480	32.627242	30.000000	0.000000	91.868579	176.602720	66.302013
2192.332000	70.141928	91.959842	92.694377	91.959842	32.622318	30.000000	0.000000	92.014600	176.688798	66.321411
2192.342000	70.172714	91.941590	92.678243	91.941590	32.624113	30.000000	0.000000	92.184959	176.725688	66.360205
2192.352000	70.212507	91.931855	92.671358	91.931855	32.631348	30.000000	0.000000	92.257970	176.799469	66.418398
2192.362000	70.212507	91.947674	92.687304	91.947674	32.636963	30.000000	0.000000	92.257970	176.836360	66.466891
2192.372000	70.323689	91.975661	92.723703	91.975661	32.676785	30.000000	0.000000	92.172791	176.885547	66.544481
2192.382000	70.377283	91.996348	92.748505	91.996348	32.698548	30.000000	0.000000	92.014600	176.971625	66.563878
2192.392000	70.529709	92.008516	92.772006	92.008516	32.743886	30.000000	0.000000	91.868579	177.106890	66.554179
2192.402000	70.682150	92.014600	92.789381	92.014600	32.787090	30.000000	0.000000	91.783399	177.156077	66.573577
2192.412000	70.809402	92.020685	92.804904	92.020685	32.823534	30.000000	0.000000	91.783399	177.180671	66.592974
2192.422000	70.883095	92.012167	92.801751	92.012167	32.840349	30.000000	0.000000	91.783399	177.266749	66.689961
2192.432000	70.944447	92.004866	92.798915	92.004866	32.854275	30.000000	0.000000	91.941590	177.315936	66.767551
2192.442000	71.014161	91.998781	92.797923	91.998781	32.870889	30.000000	0.000000	92.124117	177.389717	66.932429
2192.452000	71.064391	91.996348	92.799176	91.996348	32.883558	30.000000	0.000000	92.233633	177.537279	67.039114
2192.462000	71.238237	92.003649	92.819380	92.003649	32.933045	30.000000	0.000000	92.330981	177.611060	67.184595
2192.472000	71.352821	92.027986	92.852401	92.027986	32.972675	30.000000	0.000000	92.416160	177.955372	67.233088
2192.482000	71.598510	92.069359	92.912321	92.069359	33.053863	30.000000	0.000000	92.428329	178.250496	67.242787
2192.492000	71.751013	92.126550	92.981333	92.126550	33.115641	30.000000	0.000000	92.440497	178.607104	67.300979
2192.502000	71.960952	92.181308	93.052168	92.181308	33.192169	30.000000	0.000000	92.330981	178.988306	67.349472
2192.512000	72.156474	92.229982	93.115819	92.229982	33.262698	30.000000	0.000000	92.270138	179.357212	67.407665
2192.522000	72.273169	92.273789	93.168718	92.273789	33.310162	30.000000	0.000000	92.221464	179.713820	67.281582
2192.532000	72.348782	92.299343	93.200143	92.299343	33.339916	30.000000	0.000000	92.197128	180.095022	67.611337
2192.542000	72.402188	92.311511	93.216403	92.311511	33.358817	30.000000	0.000000	92.245801	180.328662	67.698625
2192.552000	72.434788	92.316379	93.223743	92.316379	33.369431	30.000000	0.000000	92.282307	180.599193	67.892599
2192.562000	72.468711	92.311511	93.221352	92.311511	33.376888	30.000000	0.000000	92.282307	180.795942	68.115669
2192.572000	72.574240	92.310294	93.227977	92.310294	33.405122	30.000000	0.000000	92.403992	181.041879	68.280547
2192.582000	72.674701	92.313945	93.239142	92.313945	33.433750	30.000000	0.000000	92.464834	181.496862	68.687892
2192.592000	72.767935	92.316379	93.248544	92.316379	33.459982	30.000000	0.000000	92.464834	181.767393	68.736386
2192.602000	72.887851	92.329764	93.270999	92.329764	33.497456	30.000000	0.000000	92.464834	182.013330	68.843072
2192.612000	73.016888	92.349233	93.300287	92.349233	33.539644	30.000000	0.000000	92.464834	182.013330	68.843072
2192.622000	73.178576	92.369920	93.333249	92.369920	33.591199	30.000000	0.000000	92.428329	182.492907	68.998251
2192.632000	73.292041	92.389389	93.361392	92.389389	33.629206	30.000000	0.000000	92.391823	182.714250	69.037046
2192.642000	73.408804	92.403992	93.384869	92.403992	33.666364	30.000000	0.000000	92.391823	182.898703	69.066142
2192.652000	73.606360	92.413726	93.409472	92.413726	33.723818	30.000000	0.000000	92.379655	183.095452	69.163129
2192.662000	73.656524	92.425895	93.425522	92.425895	33.741954	30.000000	0.000000	92.403992	183.304498	69.172827
2192.672000	73.773291	92.425895	93.434256	92.425895	33.773842	30.000000	0.000000	92.403992	183.562732	69.260116
2192.682000	73.773291	92.423461	93.431796	92.423461	33.772953	30.000000	0.000000	92.440497	183.697998	69.289212
2192.692000	73.992475	92.428329	93.453119	92.428329	33.834621	30.000000	0.000000	92.513508	183.907044	69.250417
2192.702000	74.062190	92.422244	93.452187	92.422244	33.851450	30.000000	0.000000	92.403992	184.103794	69.182526
2192.712000	74.173786	92.416160	93.454391	92.416160	33.879733	30.000000	0.000000	92.403992	184.337434	69.037046
2192.722000	74.236185	92.403992	93.446759	92.403992	33.892335	30.000000	0.000000	92.306644	184.435808	68.940059
2192.732000	74.283260	92.386956	93.433057	92.386956	33.898959	30.000000	0.000000	92.221464	184.558777	68.930360
2192.742000	74.329436	92.368703	93.418055	92.368703	33.904888	30.000000	0.000000	92.209296	184.583371	68.901264
2192.752000	74.338617	92.362619	93.412590	92.362619	33.905165	30.000000	0.000000	92.318812	184.632558	69.066142
2192.762000	74.338617	92.372354	93.422435	92.372354	33.908738	30.000000	0.000000	92.501339	184.632558	69.250417
2192.772000	74.362156	92.407642	93.459889	92.407642	33.928133	30.000000	0.000000	92.756877	184.669449	69.483186
2192.782000	74.374403	92.457533	93.511266	92.457533	33.949803	30.000000	0.000000	92.939405	184.718636	69.677160
2192.792000	74.437094	92.518375	93.577506	92.518375	33.989319	30.000000	0.000000	93.121932	184.915386	69.851736
2192.802000	74.609266	92.604771	93.677826	92.604771	34.068289	30.000000	0.000000	93.267953	185.210510	69.803243
2192.812000	74.733419	92.696035	93.779489	92.696035	34.135971	30.000000	0.000000	93.316627	185.604009	70.036011
2192.822000	75.164537	92.799467	93.916633	92.799467	34.292733	30.000000	0.000000	93.340964	186.034399	70.006915
2192.832000	75.400022	92.908983	94.045261	92.908983	34.398170	30.000000	0.000000	93.316627	186.513976	69.977819
2192.842000	75.400022	93.013632	94.151189	93.013632	34.436915	30.000000	0.000000	93.255785	187.030444	69.948723
2192.852000	75.561844	93.103679	94.254598	93.103679	34.515019	30.000000	0.000000	93.219279	187.485427	69.948723
2192.862000	75.690878	93.181557	94.343228	93.181557	34.579632	30.000000	0.000000	93.280122	187.878927	69.948723
2192.872000	75.797337	93.244833	94.415378	93.244833	34.632633	30.000000	0.000000	93.389638	188.223239	70.103902
2192.882000	75.823864	93.308109	94.481465	93.308109	34.663497	30.000000	0.000000	93.572165	188.456879	70.259081
2192.892000	75.823864	93.370169	94.544305	93.370169	34.686552	30.000000	0.000000	93.742524	188.604441	70.511248
2192.902000	75.844469	93.434662	94.611177	93.434662	34.716238	30.000000	0.000000	93.912883	188.936456	70.705221
2192.912000	75.906756	93.514973	94.697246	93.514973	34.763407	30.000000	0.000000	94.119747	189.170096	70.937990
2192.922000	75.906756	93.609888	94.793361	93.609888	34.798690	30.000000	0.000000	94.290105	189.489815	71.131964
2192.932000	76.018505	93.710886	94.904171	93.710886	34.867399	30.000000	0.000000	94.326611	189.846424	71.228951
2192.942000	76.282871	93.820402	95.035309	93.820402	34.982000	30.000000	0.000000	94.350948	190.239923	71.228951
2192.952000	76.582580	93.933569	95.172921	93.933569	35.108099	30.000000	0.000000	94.350948	190.633422	71.141663
2192.962000	76.725908	94.038218	95.289960	94.038218	35.187409	30.000000	0.000000	94.326611	190.990031	71.316239
2192.972000	76.797717	94.137999	95.396594	94.137999	35.244913	30.000000	0.000000	94.387453	191.334343	71.355034
2192.982000	76.830575	94.218311	95.480509	94.218311	35.284220	30.000000	0.000000	94.375285	191.666359	71.422925
2192.992000	76.939954	94.296190	95.567862	94.296190	35.344168	30.000000	0.000000	94.521306	192.158233	71.742982
2193.002000	76.992456	94.371634	95.648375	94.371634	35.387237	30.000000	0.000000	94.667328	192.354983	71.888463
2193.012000	77.021383	94.438561	95.718441	94.438561	35.420490	30.000000	0.000000	94.789013	192.551732	72.063039
2193.022000	77.130757	94.504271	95.793496	94.504271	35.476003	30.000000	0.000000	94.947203	192.773076	72.198821
2193.032000	77.215799	94.582149	95.879017	94.582149	35.529266	30.000000	0.000000	95.105393	192.969826	72.334603
2193.042000	77.215799	94.678280	95.976467	94.678280	35.565377	30.000000	0.000000	95.312258	193.621559	72.354000
2193.052000	77.550247	94.785362	96.110972	94.785362	35.700366	30.000000	0.000000	95.421774	193.928981	72.189122
2193.062000	77.631360	94.903397	96.236963	94.903397	35.767850	30.000000	0.000000	95.506953	194.224106	72.024244
2193.072000	77.764292	95.028732	96.374413	95.028732	35.852887	30.000000	0.000000	95.640806	194.506934	71.839969
2193.082000	77.906525	95.174754	96.533601	95.174754	35.948504	30.000000	0.000000	95.835502	194.703683	71.587803
2193.092000	77.906525	95.332944	96.694050	95.332944	36.008254	30.000000	0.000000	96.103209	194.937324	71.675091
2193.102000	77.939435	95.500869	96.866950	95.500869	36.081092	30.000000	0.000000	96.346578	195.072589	71.645995
2193.112000	77.948752	95.689480	97.058991	95.689480	36.155021	30.000000	0.000000	96.675127	195.220152	71.723585
2193.122000	77.968406	95.886610	97.260487	95.886610	36.235148	30.000000	0.000000	96.918497	195.355417	71.781777
2193.132000	78.004132	96.098341	97.478069	96.098341	36.325443	30.000000	0.000000	97.222709	195.552167	71.936956
2193.142000	78.027728	96.302772	97.687299	96.302772	36.409524	30.000000	0.000000	97.356562	195.810401	71.985450
2193.152000	78.149962	96.502335	97.899410	96.502335	36.520315	30.000000	0.000000	97.417404	196.093229	72.043642
2193.162000	78.286473	96.695813	98.106526	96.695813	36.633099	30.000000	0.000000	97.441741	196.400651	72.004847
2193.172000	78.525567	96.875907	98.308273	96.875907	36.770794	30.000000	0.000000	97.441741	196.732666	72.063039
2193.182000	78.742236	97.036531	98.488554	97.036531	36.894862	30.000000	0.000000	97.441741	197.138463	72.121231
2193.192000	78.825155	97.171601	98.632272	97.171601	36.970412	30.000000	0.000000	97.453910	197.507369	72.208520
2193.202000	78.918393	97.284768	98.754601	97.284768	37.040712	30.000000	0.000000	97.478247	197.790197	72.315205
2193.212000	78.994637	97.371164	98.848412	97.371164	37.095911	30.000000	0.000000	97.539089	198.073025	72.392795
2193.222000	79.111482	97.444175	98.931902	97.444175	37.157944	30.000000	0.000000	97.648605	198.355853	72.557673
2193.232000	79.190470	97.495283	98.990131	97.495283	37.200584	30.000000	0.000000	97.733785	198.614087	72.625564
2193.242000	79.223443	97.542740	99.040964	97.542740	37.228362	30.000000	0.000000	97.831133	198.860025	72.906826
2193.252000	79.293067	97.592630	99.097217	97.592630	37.267837	30.000000	0.000000	97.916312	199.044478	73.042608
2193.262000	79.476805	97.644955	99.165132	97.644955	37.341794	30.000000	0.000000	97.964986	199.351899	73.091101
2193.272000	79.536106	97.698496	99.224282	97.698496	37.379706	30.000000	0.000000	97.977154	199.622431	73.207486
2193.282000	79.620005	97.753254	99.286658	97.753254	37.425346	30.000000	0.000000	97.989323	199.942149	73.294774
2193.292000	79.763145	97.809229	99.355058	97.809229	37.488937	30.000000	0.000000	98.013660	200.237274	73.343268
2193.302000	79.877290	97.868855	99.424843	97.868855	37.545446	30.000000	0.000000	98.074502	200.470915	73.479049
2193.312000	80.008340	97.926047	99.493538	97.926047	37.606064	30.000000	0.000000	98.111008	200.716852	73.479049
2193.322000	80.148773	97.978371	99.558062	97.978371	37.667644	30.000000	0.000000	98.171850	200.962790	73.634229
2193.332000	80.215698	98.027045	99.612941	98.027045	37.706144	30.000000	0.000000	98.220524	201.221024	73.770010
2193.342000	80.292028	98.073285	99.666114	98.073285	37.746515	30.000000	0.000000	98.293535	201.417774	73.963984
2193.352000	80.361605	98.120742	99.719984	98.120742	37.785381	30.000000	0.000000	98.390883	201.639118	74.012478
2193.362000	80.461566	98.173067	99.781274	98.173067	37.835151	30.000000	0.000000	98.488230	201.885055	74.138561
2193.372000	80.549958	98.229042	99.845346	98.229042	37.882939	30.000000	0.000000	98.536904	202.118696	74.274343
2193.382000	80.593281	98.289884	99.910712	98.289884	37.919263	30.000000	0.000000	98.597747	202.647462	74.507112
2193.392000	80.672267	98.350727	99.978984	98.350727	37.966200	30.000000	0.000000	98.622084	202.795024	74.545906
2193.402000	80.672267	98.401834	100.030938	98.401834	37.985929	30.000000	0.000000	98.585578	203.090149	74.642893
2193.412000	81.405581	98.467544	100.157549	98.467544	38.229683	30.000000	0.000000	98.768106	204.319837	74.992047
2193.422000	81.560967	98.535688	100.239563	98.535688	38.302513	30.000000	0.000000	98.853285	204.541181	75.069636
2193.432000	81.604313	98.607482	100.316145	98.607482	38.343370	30.000000	0.000000	98.938464	204.737931	75.156924
2193.442000	81.691011	98.684143	100.401236	98.684143	38.399107	30.000000	0.000000	99.060149	204.946978	75.186021
2193.452000	81.750266	98.757154	100.480375	98.757154	38.445253	30.000000	0.000000	99.120991	205.131431	75.302405
2193.462000	81.843412	98.824081	100.556113	98.824081	38.499215	30.000000	0.000000	99.157497	205.365072	75.370296
2193.472000	81.963199	98.875188	100.617955	98.875188	38.555046	30.000000	0.000000	99.047981	205.561822	75.457584
2193.482000	82.113053	98.901959	100.657514	98.901959	38.610454	30.000000	0.000000	98.865453	205.672494	75.428488
2193.492000	82.211415	98.909260	100.673032	98.909260	38.642835	30.000000	0.000000	98.695095	205.770869	75.399392
2193.502000	82.247025	98.909260	100.675961	98.909260	38.653528	30.000000	0.000000	98.585578	205.758572	75.312104
2193.512000	82.298138	98.892224	100.662825	98.892224	38.662219	30.000000	0.000000	98.597747	205.758572	75.263610
2193.522000	82.357377	98.873971	100.649117	98.873971	38.672871	30.000000	0.000000	98.670758	205.684791	75.176322
2193.532000	82.391266	98.875188	100.653143	98.875188	38.683525	30.000000	0.000000	98.950633	205.586416	75.263610
2193.542000	82.424370	98.889790	100.670732	98.889790	38.699182	30.000000	0.000000	99.206171	205.475744	75.244213
2193.552000	82.438526	98.928729	100.711537	98.928729	38.718675	30.000000	0.000000	99.510383	205.463447	75.350899
2193.562000	82.471632	98.990789	100.777442	98.990789	38.752921	30.000000	0.000000	99.778089	205.512635	75.302405
2193.572000	82.538629	99.083269	100.877116	99.083269	38.809297	30.000000	0.000000	99.972785	205.623307	75.331501
2193.582000	82.842226	99.203737	101.024846	99.203737	38.948056	30.000000	0.000000	100.070133	205.869244	75.292706
2193.592000	82.988189	99.343675	101.179437	99.343675	39.047118	30.000000	0.000000	100.094470	206.164369	75.224815
2193.602000	83.334433	99.493347	101.360606	99.493347	39.210848	30.000000	0.000000	100.082301	206.557870	75.186021
2193.612000	83.504031	99.628417	101.512315	99.628417	39.315575	30.000000	0.000000	99.948448	206.914479	75.137527
2193.622000	83.647576	99.753752	101.651978	99.753752	39.408697	30.000000	0.000000	99.924111	207.234198	75.147226
2193.632000	83.747745	99.847450	101.755815	99.847450	39.476222	30.000000	0.000000	99.887606	207.578511	75.021143
2193.642000	83.797419	99.920461	101.834369	99.920461	39.520232	30.000000	0.000000	99.936280	207.849042	75.253912
2193.652000	83.825005	99.970351	101.887520	99.970351	39.548380	30.000000	0.000000	100.009291	208.033496	75.447886
2193.662000	83.848640	100.004423	101.924221	100.004423	39.569072	30.000000	0.000000	100.118807	208.193355	75.583667
2193.672000	83.898305	100.045796	101.970541	100.045796	39.600608	30.000000	0.000000	100.386514	208.463887	76.010410
2193.682000	83.941691	100.089603	102.018821	100.089603	39.631203	30.000000	0.000000	100.508198	208.660637	76.204384
2193.692000	84.035605	100.130975	102.068855	100.130975	39.676297	30.000000	0.000000	100.508198	208.660637	76.204384
2193.702000	84.035605	100.173565	102.112269	100.173565	39.693173	30.000000	0.000000	100.508198	208.869684	76.320769
2193.712000	84.368563	100.206420	102.173680	100.206420	39.808132	30.000000	0.000000	100.276997	209.349263	76.369262
2193.722000	84.368563	100.211287	102.178643	100.211287	39.810065	30.000000	0.000000	99.972785	209.656685	76.408057
2193.732000	84.549899	100.184517	102.166561	100.184517	39.854983	30.000000	0.000000	99.619899	209.878029	76.495345
2193.742000	84.757210	100.121241	102.119428	100.121241	39.893320	30.000000	0.000000	99.303519	210.013295	76.640826
2193.752000	84.885077	100.021459	102.028379	100.021459	39.892717	30.000000	0.000000	99.011475	210.050185	76.844499
2193.762000	84.891272	99.887606	101.892359	99.887606	39.841225	30.000000	0.000000	98.780274	210.050185	77.125761
2193.772000	84.908712	99.717247	101.720039	99.717247	39.778601	30.000000	0.000000	98.682926	210.013295	77.319735
2193.782000	84.908712	99.528636	101.527640	99.528636	39.703362	30.000000	0.000000	98.622084	209.927216	77.804670
2193.792000	84.911036	99.340024	101.335434	99.340024	39.628829	30.000000	0.000000	98.622084	209.841138	78.047138
2193.802000	84.942558	99.155063	101.149379	99.155063	39.564616	30.000000	0.000000	98.658589	209.878029	78.241112
2193.812000	84.978069	98.994439	100.988473	98.994439	39.511291	30.000000	0.000000	98.670758	209.914920	78.435086
2193.822000	85.086189	98.864237	100.864617	98.864237	39.492071	30.000000	0.000000	98.670758	210.050185	78.570868
2193.832000	85.375772	98.765672	100.788071	98.765672	39.540374	30.000000	0.000000	98.634252	210.210045	78.638759
2193.842000	85.375772	98.692661	100.713565	98.692661	39.511145	30.000000	0.000000	98.573410	210.406795	78.638759
2193.852000	85.696909	98.647638	100.694244	98.647638	39.590329	30.000000	0.000000	98.561241	210.640436	78.599964
2193.862000	85.834848	98.626951	100.684570	98.626951	39.623803	30.000000	0.000000	98.573410	210.775702	78.609662
2193.872000	86.083005	98.611132	100.689015	98.611132	39.692640	30.000000	0.000000	98.524736	211.046233	78.696951
2193.882000	86.139853	98.605048	100.687523	98.605048	39.707424	30.000000	0.000000	98.561241	211.169202	78.784239
2193.892000	86.183257	98.620867	100.707281	98.620867	39.726956	30.000000	0.000000	98.780274	211.255281	78.852130
2193.902000	86.240107	98.636686	100.728157	98.636686	39.750572	30.000000	0.000000	98.816779	211.365953	78.920021
2193.912000	86.297556	98.668324	100.765241	98.668324	39.780757	30.000000	0.000000	98.987138	211.476625	79.017008
2193.922000	86.354409	98.716998	100.819678	98.716998	39.817647	30.000000	0.000000	99.157497	211.538109	78.987912
2193.932000	86.397813	98.780274	100.887915	98.780274	39.856361	30.000000	0.000000	99.267013	211.636484	79.259476
2193.942000	86.509873	98.860586	100.979279	98.860586	39.922861	30.000000	0.000000	99.376530	211.796344	79.307969
2193.952000	86.637885	98.950633	101.081937	98.950633	39.998224	30.000000	0.000000	99.461709	211.943907	79.395257
2193.962000	86.757931	99.047981	101.191412	99.047981	40.074197	30.000000	0.000000	99.546888	212.140657	79.482546
2193.972000	86.992279	99.152630	101.317939	99.152630	40.188147	30.000000	0.000000	99.571225	212.337407	79.492245
2193.982000	86.992279	99.258495	101.426116	99.258495	40.231056	30.000000	0.000000	99.619899	212.509564	79.579533
2193.992000	87.222227	99.348542	101.537427	99.348542	40.338011	30.000000	0.000000	99.680742	212.718611	79.569834
2194.002000	87.298882	99.433721	101.630924	99.433721	40.396115	30.000000	0.000000	99.668573	212.915361	79.608629
2194.012000	87.381529	99.509166	101.714988	99.509166	40.452149	30.000000	0.000000	99.741584	212.952252	79.666821
2194.022000	87.446420	99.579743	101.792594	99.579743	40.500789	30.000000	0.000000	99.863269	213.173596	79.783206
2194.032000	87.518890	99.651537	101.872091	99.651537	40.552289	30.000000	0.000000	99.984954	213.259674	79.831699
2194.042000	87.550545	99.730632	101.955619	99.730632	40.594226	30.000000	0.000000	100.167481	213.370346	79.957782
2194.052000	87.613391	99.803643	102.035565	99.803643	40.643319	30.000000	0.000000	100.191818	213.456424	80.045071
2194.062000	87.704049	99.883955	102.125336	99.883955	40.704002	30.000000	0.000000	100.350008	213.542503	80.180853
2194.072000	87.827950	99.967918	102.221667	99.967918	40.776500	30.000000	0.000000	100.410850	213.702362	80.025673
2194.082000	87.924388	100.051880	102.315693	100.051880	40.840580	30.000000	0.000000	100.459524	213.849925	80.336032
2194.092000	87.924388	100.133409	102.399067	100.133409	40.873860	30.000000	0.000000	100.496030	214.071269	80.336032
2194.102000	88.217564	100.211287	102.503602	100.211287	40.996543	30.000000	0.000000	100.447356	214.255723	80.345731
2194.112000	88.440188	100.281865	102.594726	100.281865	41.094544	30.000000	0.000000	100.447356	214.452473	80.355429
2194.122000	88.530834	100.342707	102.664689	100.342707	41.147654	30.000000	0.000000	100.471693	214.796786	80.403923
2194.132000	88.621475	100.395031	102.725948	100.395031	41.197311	30.000000	0.000000	100.508198	214.895161	80.481512
2194.142000	88.650908	100.438838	102.773281	100.438838	41.224449	30.000000	0.000000	100.605546	215.005833	80.597897
2194.152000	88.703961	100.480211	102.820142	100.480211	41.257955	30.000000	0.000000	100.605546	215.005833	80.597897
2194.162000	88.810075	100.525234	102.875272	100.525234	41.309517	30.000000	0.000000	100.800242	215.165693	80.908255
2194.172000	88.877099	100.569041	102.925829	100.569041	41.348425	30.000000	0.000000	100.848916	215.239474	80.995544
2194.182000	88.963426	100.615281	102.980533	100.615281	41.394383	30.000000	0.000000	100.921927	215.350147	81.102230
2194.192000	89.028414	100.653003	103.024701	100.653003	41.430200	30.000000	0.000000	100.873253	215.460819	81.179819
2194.202000	89.253094	100.704111	103.096252	100.704111	41.521481	30.000000	0.000000	100.958432	215.645272	81.257409
2194.212000	89.428053	100.756435	103.164818	100.756435	41.597818	30.000000	0.000000	100.970601	215.842023	81.092531
2194.222000	89.577560	100.807543	103.229977	100.807543	41.665763	30.000000	0.000000	100.982769	215.977288	81.305902
2194.232000	89.642580	100.858651	103.287898	100.858651	41.707277	30.000000	0.000000	101.019275	216.149445	81.344697
2194.242000	89.800206	100.904891	103.348801	100.904891	41.775870	30.000000	0.000000	101.067948	216.284711	81.364095
2194.252000	89.890815	100.958432	103.411436	100.958432	41.826502	30.000000	0.000000	101.140959	216.432274	81.402889
2194.262000	89.979456	100.998588	103.460199	100.998588	41.871004	30.000000	0.000000	101.201802	216.579837	81.461082
2194.272000	90.026665	101.039961	103.505365	101.039961	41.885589	30.000000	0.000000	101.262644	216.715102	81.558069
2194.282000	90.103338	101.081334	103.550667	101.081334	41.876772	30.000000	0.000000	101.335655	216.838071	81.548370
2194.292000	90.191991	101.138526	103.612633	101.138526	41.870429	30.000000	0.000000	101.445171	216.911853	81.655056
2194.302000	90.294208	101.198151	103.677612	101.198151	41.860469	30.000000	0.000000	101.554688	216.961040	81.732645
2194.312000	90.408530	101.261427	103.746796	101.261427	41.847882	30.000000	0.000000	101.603362	217.206978	81.771440
2194.322000	90.494888	101.328354	103.818659	101.328354	41.846248	30.000000	0.000000	101.652036	217.317651	81.829632
2194.332000	90.603353	101.402582	103.898849	101.402582	41.840093	30.000000	0.000000	101.761552	217.416026	81.819934
2194.342000	90.715228	101.474376	103.976681	101.474376	41.831734	30.000000	0.000000	101.785889	217.575886	81.849030
2194.352000	90.827493	101.547387	104.055779	101.547387	41.823699	30.000000	0.000000	101.871068	217.760339	81.887825
2194.362000	90.935968	101.621614	104.135985	101.621614	41.817409	30.000000	0.000000	101.944079	217.883308	81.742344
2194.372000	91.044450	101.693408	104.213702	101.693408	41.810071	30.000000	0.000000	101.980585	217.993980	81.994510
2194.382000	91.211696	101.770070	104.298658	101.770070	41.784707	30.000000	0.000000	102.102269	218.080059	81.955716
2194.392000	91.286895	101.846731	104.380101	101.846731	41.790595	30.000000	0.000000	102.211786	218.252215	82.043004
2194.402000	91.363569	101.923393	104.461604	101.923393	41.795947	30.000000	0.000000	102.321302	218.362887	82.101196
2194.412000	91.463828	102.001271	104.545262	102.001271	41.793729	30.000000	0.000000	102.382145	218.473559	82.159388
2194.422000	91.572322	102.080366	104.630487	102.080366	41.789160	30.000000	0.000000	102.442987	218.584232	82.198183
2194.432000	91.686073	102.157028	104.713424	102.157028	41.781755	30.000000	0.000000	102.528166	218.694904	82.236978
2194.442000	91.823779	102.243424	104.807264	102.243424	41.770109	30.000000	0.000000	102.649851	218.854763	82.304869
2194.452000	91.823779	102.326170	104.892085	102.326170	41.803913	30.000000	0.000000	102.698525	218.940842	82.372760
2194.462000	91.950248	102.410132	104.983010	102.410132	41.795011	30.000000	0.000000	102.783705	219.162186	82.421254
2194.472000	92.159004	102.498962	105.082093	102.498962	41.759915	30.000000	0.000000	102.868884	219.248264	82.469747
2194.482000	92.245382	102.596310	105.185215	102.596310	41.770037	30.000000	0.000000	103.075748	219.481906	82.683119
2194.492000	92.335901	102.696091	105.290998	102.696091	41.779682	30.000000	0.000000	103.209601	219.555687	82.799503
2194.502000	92.392767	102.793439	105.392995	102.793439	41.799810	30.000000	0.000000	103.294781	219.617172	82.799503
2194.512000	92.457919	102.884703	105.489077	102.884703	41.814590	30.000000	0.000000	103.294781	219.617172	82.799503
2194.522000	92.558146	103.000304	105.611470	103.000304	41.827187	30.000000	0.000000	103.598993	219.690953	83.255342
2194.532000	92.623306	103.120772	105.737507	103.120772	41.853732	30.000000	0.000000	103.732846	219.752438	83.410522
2194.542000	92.715226	103.242456	105.865832	103.242456	41.871523	30.000000	0.000000	103.866700	219.777031	83.536605
2194.552000	92.780389	103.369009	105.998121	103.369009	41.900426	30.000000	0.000000	103.964047	219.813922	83.682085
2194.562000	92.912140	103.499211	106.136738	103.499211	41.907822	30.000000	0.000000	104.085732	219.850813	83.817867
2194.572000	93.017873	103.631848	106.276853	103.631848	41.925072	30.000000	0.000000	104.195249	219.973782	83.992444
2194.582000	93.116333	103.751099	106.402968	103.751099	41.939337	30.000000	0.000000	104.268260	220.121345	84.079732
2194.592000	93.202690	103.867916	106.526124	103.867916	41.956729	30.000000	0.000000	104.377776	220.182829	84.118527
2194.602000	93.412790	103.981083	106.650352	103.981083	41.929818	30.000000	0.000000	104.426450	220.379580	84.205816
2194.612000	93.521315	104.099118	106.775637	104.099118	41.939874	30.000000	0.000000	104.475124	220.539440	84.312501
2194.622000	93.611759	104.195249	106.877760	104.195249	41.947295	30.000000	0.000000	104.560303	220.699299	84.380392
2194.632000	93.671483	104.280428	106.967458	104.280428	41.960900	30.000000	0.000000	104.584640	220.896050	84.351296
2194.642000	93.870453	104.361957	107.058839	104.361957	41.924755	30.000000	0.000000	104.681988	221.006722	84.438585
2194.652000	93.968941	104.441052	107.143817	104.441052	41.922385	30.000000	0.000000	104.754999	221.154285	84.409489
2194.662000	94.007665	104.517714	107.223973	104.517714	41.939725	30.000000	0.000000	104.852347	221.264957	84.574367
2194.672000	94.082606	104.591941	107.303047	104.591941	41.943500	30.000000	0.000000	104.937526	221.412520	84.690751
2194.682000	94.212270	104.668603	107.386757	104.668603	41.929218	30.000000	0.000000	105.034874	221.486302	84.768341
2194.692000	94.277480	104.745264	107.467956	104.745264	41.937273	30.000000	0.000000	105.144391	221.572380	84.894424
2194.702000	94.354081	104.825576	107.553350	104.825576	41.942800	30.000000	0.000000	105.229570	221.683052	85.010808
2194.712000	94.415534	104.911972	107.644397	104.911972	41.955992	30.000000	0.000000	105.339086	221.806021	85.156289
2194.722000	94.614168	104.995935	107.738319	104.995935	41.920442	30.000000	0.000000	105.399929	221.965881	85.224180
2194.732000	94.742193	105.084765	107.834480	105.084765	41.911333	30.000000	0.000000	105.472940	222.088850	85.330866
2194.742000	94.874264	105.174812	107.932056	105.174812	41.901238	30.000000	0.000000	105.582456	222.150335	85.350263
2194.752000	94.927318	105.266075	108.027791	105.266075	41.919103	30.000000	0.000000	105.667635	222.347085	85.466648
2194.762000	95.007928	105.362206	108.129606	105.362206	41.929264	30.000000	0.000000	105.813657	222.470054	85.553936
2194.772000	95.190120	105.463205	108.240407	105.463205	41.905859	30.000000	0.000000	105.947511	222.605320	85.641225
2194.782000	95.275129	105.560553	108.343656	105.560553	41.914848	30.000000	0.000000	106.008353	222.691399	85.777006
2194.792000	95.275129	105.663985	108.449816	105.663985	41.955918	30.000000	0.000000	106.178712	222.765180	85.922487
2194.802000	95.446470	105.772284	108.567710	105.772284	41.938973	30.000000	0.000000	106.312565	222.888149	85.903090
2194.812000	95.446470	105.876933	108.675125	105.876933	41.980466	30.000000	0.000000	106.385576	223.011119	86.223147
2194.822000	95.616504	105.988883	108.796733	105.988883	41.965267	30.000000	0.000000	106.519429	223.084900	86.261942
2194.832000	95.681755	106.108135	108.921716	106.108135	41.989598	30.000000	0.000000	106.665451	223.220166	86.358929
2194.842000	95.880595	106.226169	109.050727	106.226169	41.966511	30.000000	0.000000	106.762799	223.293947	86.426820
2194.852000	95.932105	106.347854	109.177682	106.347854	41.996488	30.000000	0.000000	106.884484	223.429214	86.543205
2194.862000	96.082391	106.462238	109.301050	106.462238	41.988817	30.000000	0.000000	106.957495	223.552183	86.611096
2194.872000	96.082391	106.570537	109.412237	106.570537	42.031531	30.000000	0.000000	107.030506	223.650558	86.746877
2194.882000	96.252450	106.687355	109.538904	106.687355	42.017707	30.000000	0.000000	107.176528	223.712043	86.601397
2194.892000	96.345970	106.819991	109.678792	106.819991	42.036975	30.000000	0.000000	107.505077	223.822715	86.465615
2194.902000	96.421229	106.961146	109.826710	106.961146	42.065963	30.000000	0.000000	107.724110	223.798121	86.378326
2194.912000	96.482765	107.113252	109.985336	107.113252	42.104038	30.000000	0.000000	107.906637	223.773527	86.426820
2194.922000	96.541031	107.251972	110.130094	107.251972	42.137953	30.000000	0.000000	107.906637	223.773527	86.426820
2194.932000	96.602568	107.419897	110.304976	107.419897	42.182128	30.000000	0.000000	108.344703	223.785824	86.698384
2194.942000	96.602568	107.596341	110.486158	107.596341	42.251414	30.000000	0.000000	108.527230	223.798121	86.805070
2194.952000	96.810509	107.775217	110.678147	107.775217	42.247767	30.000000	0.000000	108.673252	223.921090	86.969948
2194.962000	96.938810	107.955311	110.868223	107.955311	42.272716	30.000000	0.000000	108.758431	223.970278	87.173621
2194.972000	97.142179	108.131754	111.057572	108.131754	42.269361	30.000000	0.000000	108.794937	224.167028	87.367595
2194.982000	97.287359	108.280210	111.215864	108.280210	42.275627	30.000000	0.000000	108.661083	224.400670	87.464582
2194.992000	97.420798	108.404328	111.348701	108.404328	42.276469	30.000000	0.000000	108.746263	224.646608	87.639159
2195.002000	97.504426	108.499242	111.449550	108.499242	42.283623	30.000000	0.000000	108.673252	224.892546	87.736146
2195.012000	97.797703	108.574687	111.538823	108.574687	42.208279	30.000000	0.000000	108.661083	225.199969	87.901024
2195.022000	97.797703	108.652565	111.618827	108.652565	42.238554	30.000000	0.000000	108.685420	225.409017	87.891325
2195.032000	97.902519	108.687854	111.659290	108.687854	42.214815	30.000000	0.000000	108.697589	225.593471	88.027107
2195.042000	98.043062	108.713408	111.691189	108.713408	42.174520	30.000000	0.000000	108.782768	225.691846	88.211383
2195.052000	98.076337	108.740178	111.720030	108.740178	42.173014	30.000000	0.000000	108.940958	225.839409	88.395658
2195.062000	98.099797	108.769383	111.750977	108.769383	42.175956	30.000000	0.000000	109.050475	225.913190	88.657523
2195.072000	98.141637	108.807105	111.791415	108.807105	42.175624	30.000000	0.000000	109.172160	226.048456	88.822402
2195.082000	98.206940	108.864297	111.852801	108.864297	42.174437	30.000000	0.000000	109.233002	226.171426	89.064869
2195.092000	98.338907	108.908104	111.903118	108.908104	42.144201	30.000000	0.000000	109.184328	226.306692	89.355831
2195.102000	98.484210	108.944609	111.946471	108.944609	42.106350	30.000000	0.000000	109.038306	226.478849	89.443119
2195.112000	98.645733	108.961645	111.970471	108.961645	42.055167	30.000000	0.000000	108.831442	226.577224	89.646792
2195.122000	98.804689	108.960428	111.975609	108.960428	41.997871	30.000000	0.000000	108.673252	226.687896	89.714683
2195.132000	98.932927	108.937308	111.957000	108.937308	41.943141	30.000000	0.000000	108.466387	226.810865	89.898959
2195.142000	99.036412	108.904453	111.927389	108.904453	41.893537	30.000000	0.000000	108.454219	226.884647	90.083234
2195.152000	99.078287	108.856996	111.880295	108.856996	41.860337	30.000000	0.000000	108.466387	226.921538	90.267510
2195.162000	99.078287	108.808322	111.830269	108.808322	41.841620	30.000000	0.000000	108.563735	226.970725	90.461484
2195.172000	99.130076	108.762082	111.784820	108.762082	41.805375	30.000000	0.000000	108.709757	226.970725	90.558471
2195.182000	99.258303	108.730444	111.757440	108.730444	41.747522	30.000000	0.000000	108.916621	227.130585	90.742747
2195.192000	99.361809	108.720709	111.751579	108.720709	41.706914	30.000000	0.000000	109.086980	227.216664	90.839734
2195.202000	99.488751	108.734094	111.770421	108.734094	41.666838	30.000000	0.000000	109.172160	227.376524	90.946420
2195.212000	99.794396	108.757214	111.806421	108.757214	41.566875	30.000000	0.000000	109.062643	227.610165	90.985215
2195.222000	99.964508	108.777901	111.834494	108.777901	41.514238	30.000000	0.000000	108.880116	227.806916	90.888227
2195.232000	100.111203	108.803455	111.866635	108.803455	41.471788	30.000000	0.000000	108.721926	228.065151	90.636061
2195.242000	100.197541	108.815623	111.882600	108.815623	41.445707	30.000000	0.000000	108.575904	228.274199	90.558471
2195.252000	100.255533	108.825358	111.894928	108.825358	41.428784	30.000000	0.000000	108.563735	228.569325	90.238414
2195.262000	100.274051	108.837526	111.908181	108.837526	41.426828	30.000000	0.000000	108.685420	228.544731	90.209317
2195.272000	100.290134	108.861863	111.933848	108.861863	41.430368	30.000000	0.000000	108.953127	228.581622	90.189920
2195.282000	100.298795	108.895935	111.969227	108.895935	41.440253	30.000000	0.000000	109.257339	228.569325	90.325702
2195.292000	100.330858	108.938525	112.014303	108.938525	41.445044	30.000000	0.000000	109.512877	228.655404	90.354798
2195.302000	100.382664	108.994500	112.073933	108.994500	41.447886	30.000000	0.000000	109.731910	228.729185	90.471183
2195.312000	100.514524	109.074812	112.161797	109.074812	41.431433	30.000000	0.000000	109.865764	228.790670	90.587567
2195.322000	100.735250	109.183111	112.282011	109.183111	41.393861	30.000000	0.000000	109.963112	229.159577	90.587567
2195.332000	101.065619	109.310881	112.426657	109.310881	41.324435	30.000000	0.000000	109.999617	229.430110	90.529375
2195.342000	101.234564	109.458119	112.584875	109.458119	41.319778	30.000000	0.000000	110.048291	229.774424	90.316003
2195.352000	101.446611	109.601707	112.741083	109.601707	41.298208	30.000000	0.000000	109.999617	230.044956	90.131728
2195.362000	101.557833	109.737994	112.885746	109.737994	41.309783	30.000000	0.000000	110.048291	230.303191	89.947452
2195.372000	101.676129	109.859679	113.015682	109.859679	41.313246	30.000000	0.000000	110.169976	230.463051	89.763177
2195.382000	101.709329	109.967979	113.128430	109.967979	41.342080	30.000000	0.000000	110.340335	230.573724	89.908657
2195.392000	101.709329	110.070194	113.233583	110.070194	41.380507	30.000000	0.000000	110.535031	230.659802	90.015343
2195.402000	101.727933	110.169976	113.336983	110.169976	41.411343	30.000000	0.000000	110.729726	230.684396	90.180221
2195.412000	101.746539	110.279492	113.450399	110.279492	41.445825	30.000000	0.000000	110.960928	230.708990	90.451785
2195.422000	101.808230	110.396310	113.573069	110.396310	41.467547	30.000000	0.000000	111.131287	230.745881	90.742747
2195.432000	101.936404	110.522862	113.708449	110.522862	41.468955	30.000000	0.000000	111.265140	230.905741	90.975516
2195.442000	101.936404	110.645764	113.834893	110.645764	41.515069	30.000000	0.000000	111.277308	231.028710	91.217984
2195.452000	102.167086	110.772316	113.974444	110.772316	41.479382	30.000000	0.000000	111.265140	231.250055	91.392561
2195.462000	102.617064	110.890350	114.114134	110.890350	41.361304	30.000000	0.000000	111.228634	231.373024	91.547740
2195.472000	102.766354	110.992566	114.225375	110.992566	41.345580	30.000000	0.000000	111.192129	231.717338	91.664125
2195.482000	102.831670	111.066794	114.304415	111.066794	41.349661	30.000000	0.000000	111.082613	231.963277	91.751413
2195.492000	102.916682	111.109383	114.351695	111.109383	41.334834	30.000000	0.000000	110.960928	232.123137	91.877496
2195.502000	102.977347	111.109383	114.354157	111.109383	41.312942	30.000000	0.000000	110.729726	232.246106	91.935689
2195.512000	103.030261	111.064360	114.309964	111.064360	41.277118	30.000000	0.000000	110.510694	232.332184	92.032676
2195.522000	103.062358	110.977964	114.222343	110.977964	41.233442	30.000000	0.000000	110.267324	232.344481	91.993881
2195.532000	103.062358	110.863580	114.104615	110.863580	41.190943	30.000000	0.000000	110.121302	232.270700	92.236349
2195.542000	103.071139	110.751630	113.989748	110.751630	41.146191	30.000000	0.000000	110.157807	232.098543	92.362432
2195.552000	103.071139	110.655499	113.890806	110.655499	41.110477	30.000000	0.000000	110.303829	231.901792	92.527310
2195.562000	103.071139	110.573970	113.806893	110.573970	41.080187	30.000000	0.000000	110.413346	231.754229	92.779477
2195.572000	103.071139	110.504609	113.735505	110.504609	41.054418	30.000000	0.000000	110.498525	231.618963	93.031643
2195.582000	103.216834	110.454718	113.690029	110.454718	40.983642	30.000000	0.000000	110.583704	231.508290	93.196522
2195.592000	103.448650	110.424297	113.668055	110.424297	40.889293	30.000000	0.000000	110.656715	231.471399	93.283810
2195.602000	103.448650	110.420647	113.664297	110.420647	40.887942	30.000000	0.000000	110.693221	231.545181	93.254714
2195.612000	103.689260	110.452285	113.706554	110.452285	40.813472	30.000000	0.000000	110.827074	231.582072	93.148028
2195.622000	103.970798	110.520428	113.788042	110.520428	40.737808	30.000000	0.000000	110.948759	231.803416	92.895861
2195.632000	104.074515	110.611692	113.886183	110.611692	40.734284	30.000000	0.000000	111.033939	231.852604	92.692188
2195.642000	104.074515	110.717558	113.995182	110.717558	40.773271	30.000000	0.000000	111.216466	231.901792	92.614599
2195.652000	104.158553	110.814906	114.098803	110.814906	40.778959	30.000000	0.000000	111.277308	231.950980	92.566105
2195.662000	104.210341	110.934157	114.223680	110.934157	40.804239	30.000000	0.000000	111.605858	231.950980	92.624297
2195.672000	104.239936	111.071661	114.366458	111.071661	40.844173	30.000000	0.000000	111.873564	231.852604	92.886163
2195.682000	104.248767	111.224984	114.524686	111.224984	40.897374	30.000000	0.000000	112.116934	231.766526	93.012246
2195.692000	104.272041	111.371006	114.675984	111.371006	40.942674	30.000000	0.000000	112.116934	231.766526	93.012246
2195.702000	104.432956	111.542582	114.859183	111.542582	40.947651	30.000000	0.000000	112.408978	231.840307	93.400195
2195.712000	104.432956	111.692254	115.013306	111.692254	41.002596	30.000000	0.000000	112.323799	231.975573	93.671759
2195.722000	104.615325	111.799337	115.130989	111.799337	40.975938	30.000000	0.000000	112.019586	232.110840	93.894829
2195.732000	104.841567	111.867480	115.210365	111.867480	40.919065	30.000000	0.000000	111.715374	232.307591	94.137297
2195.742000	105.199060	111.893034	115.251216	111.893034	40.799141	30.000000	0.000000	111.472004	232.516638	94.331271
2195.752000	105.292878	111.897901	115.260042	111.897901	40.767007	30.000000	0.000000	111.325982	232.615014	94.631932
2195.762000	105.405507	111.854095	115.219492	111.854095	40.710367	30.000000	0.000000	111.167792	232.860952	94.913194
2195.772000	105.476095	111.765265	115.130853	111.765265	40.652566	30.000000	0.000000	110.985265	232.971625	95.184758
2195.782000	105.604002	111.642363	115.009432	111.642363	40.561772	30.000000	0.000000	110.887917	233.082297	95.388432
2195.792000	105.628065	111.491474	114.854966	111.491474	40.498293	30.000000	0.000000	110.608041	233.168376	95.582406
2195.802000	105.665722	111.296778	114.655917	111.296778	40.414048	30.000000	0.000000	110.462020	233.180673	95.698791
2195.812000	105.713105	111.104516	114.459761	111.104516	40.327247	30.000000	0.000000	110.401177	233.106891	95.708489
2195.822000	105.789160	110.946326	114.299854	110.946326	40.242608	30.000000	0.000000	110.437683	233.020812	96.028547
2195.832000	105.820442	110.827074	114.178256	110.827074	40.188170	30.000000	0.000000	110.522862	232.860952	96.280714
2195.842000	105.834769	110.743112	114.092330	110.743112	40.152606	30.000000	0.000000	110.632378	232.750280	96.620169
2195.852000	105.843660	110.688354	114.036272	110.688354	40.129578	30.000000	0.000000	110.778400	232.639608	96.920829
2195.862000	105.900039	110.657932	114.007193	110.657932	40.098428	30.000000	0.000000	110.863580	232.590420	97.017816
2195.872000	106.073670	110.646981	114.002874	110.646981	40.032516	30.000000	0.000000	110.875748	232.639608	97.172996
2195.882000	106.073670	110.642113	113.997859	110.642113	40.030755	30.000000	0.000000	110.839243	232.737983	97.250586
2195.892000	106.511366	110.656715	114.030448	110.656715	39.879990	30.000000	0.000000	110.754063	232.885546	97.269983
2195.902000	106.869626	110.678619	114.067368	110.678619	39.760253	30.000000	0.000000	110.681052	232.996219	97.240887
2195.912000	106.869626	110.698088	114.087434	110.698088	39.767247	30.000000	0.000000	110.595873	233.143782	97.240887
2195.922000	106.963446	110.706606	114.099969	110.706606	39.736892	30.000000	0.000000	110.522862	233.242157	97.396066
2195.932000	107.028684	110.692004	114.087531	110.692004	39.708424	30.000000	0.000000	110.376840	233.303642	97.522150
2195.942000	107.098318	110.649414	114.046420	110.649414	39.668367	30.000000	0.000000	110.206481	233.279048	97.619137
2195.952000	107.121484	110.580054	113.975857	110.580054	39.635264	30.000000	0.000000	110.084796	233.057703	97.754919
2195.962000	107.140388	110.498525	113.892579	110.498525	39.599325	30.000000	0.000000	110.048291	232.860952	98.133169
2195.972000	107.168967	110.404828	113.797144	110.404828	39.555602	30.000000	0.000000	109.938775	232.602717	98.346541
2195.982000	107.212049	110.308697	113.699777	110.308697	39.505881	30.000000	0.000000	109.877932	232.356778	98.627804
2195.992000	107.244160	110.214999	113.604478	110.214999	39.460947	30.000000	0.000000	109.817090	232.086246	98.734490
2196.002000	107.348935	110.135904	113.527121	110.135904	39.395539	30.000000	0.000000	109.890101	231.828010	98.753887
2196.012000	107.475144	110.068977	113.463152	110.068977	39.326962	30.000000	0.000000	109.926606	231.643556	98.705394
2196.022000	107.779610	110.008135	113.412527	110.008135	39.197654	30.000000	0.000000	109.914438	231.434509	98.618105
2196.032000	107.938926	109.959461	113.368668	109.959461	39.124080	30.000000	0.000000	109.890101	231.176273	98.433829
2196.042000	107.938926	109.915654	113.323503	109.915654	39.108493	30.000000	0.000000	109.768416	230.893444	98.317445
2196.052000	108.139339	109.860896	113.274990	109.860896	39.018367	30.000000	0.000000	109.537214	230.684396	98.201060
2196.062000	108.392430	109.780584	113.202199	109.780584	38.900746	30.000000	0.000000	109.245171	230.327785	98.065278
2196.072000	108.434504	109.685670	113.105989	109.685670	38.852320	30.000000	0.000000	108.989632	229.971174	97.793714
2196.082000	108.486540	109.565202	112.983819	109.565202	38.791374	30.000000	0.000000	108.673252	229.467000	97.551246
2196.092000	108.538244	109.430132	112.846573	109.430132	38.725420	30.000000	0.000000	108.466387	228.876748	97.240887
2196.102000	108.580317	109.270724	112.683845	109.270724	38.654276	30.000000	0.000000	108.296029	228.249605	96.940227
2196.112000	108.599289	109.080896	112.488833	109.080896	38.580494	30.000000	0.000000	108.028322	227.573274	96.901432
2196.122000	108.618262	108.860646	112.262446	108.860646	38.495977	30.000000	0.000000	107.711941	226.761678	96.775348
2196.132000	108.641365	108.602674	111.997317	108.602674	38.396712	30.000000	0.000000	107.310381	225.950081	96.620169
2196.142000	108.702418	108.313064	111.701036	108.313064	38.273135	30.000000	0.000000	106.872316	225.064703	96.503784
2196.152000	108.825142	108.008852	111.392081	108.008852	38.123184	30.000000	0.000000	106.495092	224.203919	96.445592
2196.162000	108.896771	107.692472	111.068568	107.692472	37.986812	30.000000	0.000000	106.081364	223.318541	96.280714
2196.172000	109.174705	107.356621	110.732926	107.356621	37.772839	30.000000	0.000000	105.631130	222.420867	96.028547
2196.182000	109.324584	107.004952	110.375966	107.004952	37.597798	30.000000	0.000000	105.156559	221.474005	95.659996
2196.192000	109.437713	106.622862	109.986175	106.622862	37.424967	30.000000	0.000000	104.645483	220.527143	95.320541
2196.202000	109.517822	106.209133	109.562454	106.209133	37.252542	30.000000	0.000000	104.158743	219.690953	94.981085
2196.212000	109.621551	105.763766	109.106969	105.763766	37.061260	30.000000	0.000000	103.574656	218.817873	94.583438
2196.222000	109.747788	105.286762	108.619662	105.286762	36.851633	30.000000	0.000000	102.941895	217.907902	94.263380
2196.232000	109.916102	104.780553	108.103763	104.780553	36.618111	30.000000	0.000000	102.248291	216.961040	93.875432
2196.242000	109.962186	104.258525	107.566904	104.258525	36.420329	30.000000	0.000000	101.652036	216.038773	93.468086
2196.252000	109.993778	103.720678	107.013166	103.720678	36.221980	30.000000	0.000000	101.116622	215.104209	93.060740
2196.262000	110.007237	103.180397	106.456233	103.180397	36.028865	30.000000	0.000000	100.678557	214.095863	92.682490
2196.272000	110.007237	102.651068	105.910099	102.651068	35.844032	30.000000	0.000000	100.337840	213.001439	92.294541
2196.282000	110.007237	102.143642	105.386563	102.143642	35.666848	30.000000	0.000000	100.082301	211.980797	92.013278
2196.292000	110.007237	101.659337	104.886881	101.659337	35.497736	30.000000	0.000000	99.802426	210.910968	91.809605
2196.302000	110.036753	101.220055	104.434725	101.220055	35.334806	30.000000	0.000000	99.765921	209.939513	91.605932
2196.312000	110.182525	100.806326	104.013132	100.806326	35.143463	30.000000	0.000000	99.437372	208.144168	91.334368
2196.322000	110.182525	100.433971	103.628931	100.433971	35.013651	30.000000	0.000000	99.218339	207.357167	91.091900
2196.332000	110.450536	100.130975	103.325925	100.130975	34.822382	30.000000	0.000000	99.218339	207.357167	91.091900
2196.342000	110.614883	99.865703	103.058073	99.865703	34.677782	30.000000	0.000000	98.999307	206.668542	90.810638
2196.352000	111.038659	99.590695	102.789397	99.590695	34.447773	30.000000	0.000000	98.366546	205.537228	90.277208
2196.362000	111.038659	99.316904	102.506812	99.316904	34.353070	30.000000	0.000000	97.940649	204.996166	89.976548
2196.372000	111.203056	99.038246	102.225034	99.038246	34.204828	30.000000	0.000000	97.551258	204.479697	89.666190
2196.382000	111.338402	98.747419	101.929633	98.747419	34.061832	30.000000	0.000000	97.174035	203.914040	89.346132
2196.392000	111.468495	98.450508	101.627737	98.450508	33.918651	30.000000	0.000000	96.833317	203.311493	89.093966
2196.402000	111.510565	98.126827	101.295087	98.126827	33.793998	30.000000	0.000000	96.529105	202.696649	88.938786
2196.412000	111.510565	97.810446	100.968491	97.810446	33.685039	30.000000	0.000000	96.273567	201.934243	88.832100
2196.422000	111.552634	97.495283	100.644619	97.495283	33.563449	30.000000	0.000000	96.066703	201.196430	88.686620
2196.432000	111.603835	97.158216	100.298443	97.158216	33.431585	30.000000	0.000000	95.847671	200.458618	88.502344
2196.442000	111.645904	96.835751	99.967013	96.835751	33.307667	30.000000	0.000000	95.774660	199.745399	88.424754
2196.452000	111.745306	96.558310	99.684033	96.558310	33.181710	30.000000	0.000000	95.592132	199.007587	88.337466
2196.462000	111.900990	96.303988	99.426839	96.303988	33.046641	30.000000	0.000000	95.397437	198.318962	88.221081
2196.472000	112.056292	96.063053	99.183421	96.063053	32.916545	30.000000	0.000000	95.141899	197.667228	87.939819
2196.482000	112.140783	95.836719	98.952628	95.836719	32.813260	30.000000	0.000000	94.910698	197.076979	87.813736
2196.492000	112.221108	95.622554	98.734243	95.622554	32.715530	30.000000	0.000000	94.691665	196.548213	87.707050
2196.502000	112.282309	95.410822	98.517707	95.410822	32.624542	30.000000	0.000000	94.411790	196.031745	87.483979
2196.512000	112.356466	95.202741	98.305371	95.202741	32.530970	30.000000	0.000000	94.192758	195.564464	87.290005
2196.522000	112.521747	94.998311	98.099883	94.998311	32.411263	30.000000	0.000000	94.022399	195.084886	87.028140
2196.532000	112.625021	94.798748	97.897298	94.798748	32.312102	30.000000	0.000000	93.852040	194.654496	86.892358
2196.542000	112.747766	94.587016	97.682788	94.587016	32.203093	30.000000	0.000000	93.657345	194.187215	86.737179
2196.552000	112.831886	94.377718	97.469472	94.377718	32.106649	30.000000	0.000000	93.499154	193.781419	86.737179
2196.562000	112.893104	94.174505	97.261657	94.174505	32.019231	30.000000	0.000000	93.365301	193.301841	86.698384
2196.572000	112.935163	93.989544	97.072042	93.989544	31.943808	30.000000	0.000000	93.292290	192.883748	86.688685
2196.582000	113.057899	93.809451	96.890147	93.809451	31.846092	30.000000	0.000000	93.109763	192.477951	86.737179
2196.592000	113.151204	93.648827	96.727362	93.648827	31.763864	30.000000	0.000000	93.085426	192.096749	86.775974
2196.602000	113.212432	93.507672	96.583608	93.507672	31.697842	30.000000	0.000000	93.000247	191.740140	86.746877
2196.612000	113.315717	93.381120	96.456329	93.381120	31.624379	30.000000	0.000000	92.927236	191.432718	86.795371
2196.622000	113.419006	93.265520	96.340352	93.265520	31.554711	30.000000	0.000000	92.866394	191.174484	86.708083
2196.632000	113.715727	93.157220	96.238323	93.157220	31.430541	30.000000	0.000000	92.769046	190.928547	86.708083
2196.642000	113.715727	93.055005	96.132727	93.055005	31.396055	30.000000	0.000000	92.635193	190.731797	86.727480
2196.652000	113.848193	92.958874	96.037798	92.958874	31.324648	30.000000	0.000000	92.537845	190.522751	86.688685
2196.662000	113.979921	92.867611	95.947863	92.867611	31.255189	30.000000	0.000000	92.452665	190.350595	86.717781
2196.672000	114.096832	92.777564	95.858687	92.777564	31.190575	30.000000	0.000000	92.391823	190.178439	86.766275
2196.682000	114.170942	92.697252	95.778150	92.697252	31.141851	30.000000	0.000000	92.306644	190.006283	86.814768
2196.692000	114.293453	92.612073	95.694173	92.612073	31.077364	30.000000	0.000000	92.233633	189.821830	86.814768
2196.702000	114.435384	92.531761	95.615855	92.531761	31.008906	30.000000	0.000000	92.197128	189.674268	86.814768
2196.712000	114.619179	92.450232	95.537644	92.450232	30.927901	30.000000	0.000000	92.111948	189.293065	86.940852
2196.722000	114.684022	92.366269	95.453004	92.366269	30.880896	30.000000	0.000000	92.026769	189.071722	86.940852
2196.732000	114.783759	92.293258	95.380822	92.293258	30.827418	30.000000	0.000000	92.038937	188.862675	87.028140
2196.742000	114.867829	92.232416	95.320696	92.232416	30.782616	30.000000	0.000000	92.026769	188.629035	87.096031
2196.752000	114.971134	92.178875	95.268741	92.178875	30.734689	30.000000	0.000000	92.002432	188.419988	87.202717
2196.762000	115.023142	92.132635	95.222651	92.132635	30.704150	30.000000	0.000000	91.990263	188.247832	87.193018
2196.772000	115.093687	92.087611	95.178422	92.087611	30.668647	30.000000	0.000000	91.941590	188.026489	87.338499
2196.782000	115.319560	92.049889	95.146807	92.049889	30.590502	30.000000	0.000000	91.929421	187.866630	87.270608
2196.792000	115.455032	92.020685	95.121039	92.020685	30.541491	30.000000	0.000000	91.941590	187.731364	87.299704
2196.802000	115.554841	91.990263	95.092846	91.990263	30.502454	30.000000	0.000000	91.892916	187.559209	87.348197
2196.812000	115.658150	91.965926	95.071055	91.965926	30.464444	30.000000	0.000000	91.868579	187.460834	87.386992
2196.822000	115.780730	91.951324	95.059952	91.951324	30.424097	30.000000	0.000000	91.880747	187.325568	87.367595
2196.832000	115.864763	91.936722	95.047592	91.936722	30.394932	30.000000	0.000000	91.892916	187.251787	87.260909
2196.842000	116.010080	91.920903	95.035966	91.920903	30.347641	30.000000	0.000000	91.868579	187.153412	87.551870
2196.852000	116.113380	91.906301	95.024229	91.906301	30.312934	30.000000	0.000000	91.856410	187.042741	87.551870
2196.862000	116.203933	91.901434	95.022141	91.901434	30.285138	30.000000	0.000000	91.941590	186.956663	87.600364
2196.872000	116.303864	91.903867	95.027906	91.903867	30.257043	30.000000	0.000000	91.965926	186.882882	87.668255
2196.882000	116.416484	91.911168	95.039116	91.911168	30.226885	30.000000	0.000000	92.002432	186.796804	87.794338
2196.892000	116.416484	91.931855	95.060507	91.931855	30.233689	30.000000	0.000000	92.148454	186.636945	87.988312
2196.902000	116.416484	91.963493	95.093221	91.963493	30.244093	30.000000	0.000000	92.209296	186.526273	88.056203
2196.912000	116.416484	92.003649	95.134744	92.003649	30.257299	30.000000	0.000000	92.270138	186.354117	88.153190
2196.922000	116.519786	92.049889	95.185920	92.049889	30.242602	30.000000	0.000000	92.343149	186.354117	88.240479
2196.932000	117.006869	92.099780	95.253360	92.099780	30.118012	30.000000	0.000000	92.391823	186.268039	88.366562
2196.942000	117.129485	92.163056	95.322793	92.163056	30.103215	30.000000	0.000000	92.501339	186.157367	88.473248
2196.952000	117.304059	92.232416	95.400214	92.232416	30.075323	30.000000	0.000000	92.550013	186.095883	88.550838
2196.962000	117.394054	92.298126	95.471111	92.298126	30.070681	30.000000	0.000000	92.598687	185.985212	88.667222
2196.972000	117.520026	92.362619	95.541926	92.362619	30.055187	30.000000	0.000000	92.610856	185.936024	88.676921
2196.982000	117.642655	92.424678	95.610118	92.424678	30.039831	30.000000	0.000000	92.623024	185.813056	88.851498
2196.992000	117.745943	92.475786	95.666354	92.475786	30.026490	30.000000	0.000000	92.659530	185.726978	88.880594
2197.002000	117.849227	92.522026	95.717558	92.522026	30.011546	30.000000	0.000000	92.671698	185.604009	88.967882
2197.012000	117.968520	92.564615	95.765510	92.564615	29.990752	30.000000	0.000000	92.696035	185.493337	89.093966
2197.022000	118.068543	92.599904	95.805281	92.599904	29.973164	30.000000	0.000000	92.696035	185.370369	89.220049
2197.032000	118.171825	92.638843	95.848938	92.638843	29.955795	30.000000	0.000000	92.781214	185.210510	89.355831
2197.042000	118.284491	92.668048	95.882830	92.668048	29.932540	30.000000	0.000000	92.793383	185.001464	89.443119
2197.052000	118.326448	92.703336	95.920712	92.703336	29.931759	30.000000	0.000000	92.902899	184.767823	89.666190
2197.062000	118.419747	92.731324	95.952717	92.731324	29.913709	30.000000	0.000000	92.878562	184.534183	89.734081
2197.072000	118.626391	92.762962	95.992198	92.762962	29.863923	30.000000	0.000000	92.927236	184.325137	89.908657
2197.082000	118.736426	92.799467	96.033566	92.799467	29.843730	30.000000	0.000000	92.988078	184.128387	90.034741
2197.092000	118.807716	92.844490	96.082486	92.844490	29.837506	30.000000	0.000000	93.109763	183.759482	90.296606
2197.102000	118.891597	92.888297	96.130560	92.888297	29.827218	30.000000	0.000000	93.109763	183.759482	90.296606
2197.112000	119.072761	92.950356	96.200704	92.950356	29.794501	30.000000	0.000000	93.316627	183.415170	90.655458
2197.122000	119.156776	93.027018	96.282792	93.027018	29.794648	30.000000	0.000000	93.462649	183.181530	90.810638
2197.132000	119.234692	93.113414	96.374761	93.113414	29.799649	30.000000	0.000000	93.645176	183.009374	91.024009
2197.142000	119.299854	93.209545	96.476392	93.209545	29.811439	30.000000	0.000000	93.754692	182.726547	91.324670
2197.152000	119.374438	93.311760	96.584634	93.311760	29.822392	30.000000	0.000000	93.925051	182.554391	91.576836
2197.162000	119.491123	93.422493	96.703078	93.422493	29.823738	30.000000	0.000000	93.985893	182.382235	91.761112
2197.172000	119.491123	93.549045	96.834074	93.549045	29.864138	30.000000	0.000000	94.192758	182.234673	91.935689
2197.182000	119.607614	93.679248	96.972680	93.679248	29.871633	30.000000	0.000000	94.290105	182.099408	92.100567
2197.192000	119.889288	93.807017	97.114211	93.807017	29.829918	30.000000	0.000000	94.387453	182.025627	92.304240
2197.202000	120.041213	93.943304	97.260307	93.943304	29.828740	30.000000	0.000000	94.472633	181.939549	92.304240
2197.212000	120.041213	94.062555	97.383769	94.062555	29.866604	30.000000	0.000000	94.509138	181.853471	92.410926
2197.222000	120.238345	94.172071	97.503659	94.172071	29.843498	30.000000	0.000000	94.557812	181.816580	92.469118
2197.232000	120.322826	94.268202	97.605982	94.268202	29.849141	30.000000	0.000000	94.606486	181.755096	92.507913
2197.242000	120.322826	94.357032	97.697957	94.357032	29.877268	30.000000	0.000000	94.642991	181.705909	92.585502
2197.252000	120.426250	94.434910	97.782014	94.434910	29.871494	30.000000	0.000000	94.703834	181.619831	92.692188
2197.262000	120.555186	94.509138	97.863140	94.509138	29.857013	30.000000	0.000000	94.728171	181.509159	92.760079
2197.272000	120.626675	94.559029	97.917169	94.559029	29.851720	30.000000	0.000000	94.691665	181.361597	92.789175
2197.282000	120.720620	94.583366	97.945481	94.583366	29.831735	30.000000	0.000000	94.533475	181.287816	93.070438
2197.292000	120.833682	94.579715	97.945443	94.579715	29.797294	30.000000	0.000000	94.350948	181.115660	93.235316
2197.302000	120.875537	94.549294	97.915324	94.549294	29.775392	30.000000	0.000000	94.168421	180.992692	93.351701
2197.312000	120.956536	94.494536	97.861294	94.494536	29.734328	30.000000	0.000000	93.961557	180.832833	93.565073
2197.322000	121.020817	94.433693	97.800408	94.433693	29.696295	30.000000	0.000000	93.949388	180.697567	93.807541
2197.332000	121.082085	94.363116	97.729337	94.363116	29.656114	30.000000	0.000000	93.900714	180.476224	94.079105
2197.342000	121.143352	94.297407	97.663303	94.297407	29.617492	30.000000	0.000000	93.985893	180.279475	94.360367
2197.352000	121.204617	94.237781	97.603568	94.237781	29.580807	30.000000	0.000000	94.107578	180.107319	94.593137
2197.362000	121.275721	94.196408	97.563059	94.196408	29.546993	30.000000	0.000000	94.314442	179.849085	94.874400
2197.372000	121.430579	94.175722	97.546731	94.175722	29.495164	30.000000	0.000000	94.484801	179.836788	95.126566
2197.382000	121.430579	94.186673	97.558074	94.186673	29.498594	30.000000	0.000000	94.642991	179.750711	95.330239
2197.392000	121.757065	94.238998	97.623020	94.238998	29.419382	30.000000	0.000000	94.874192	179.750711	95.446624
2197.402000	121.899398	94.320527	97.712163	94.320527	29.403144	30.000000	0.000000	94.983709	179.799898	95.524214
2197.412000	122.083932	94.436127	97.838002	94.436127	29.385084	30.000000	0.000000	95.117562	179.910569	95.650297
2197.422000	122.083932	94.560246	97.966592	94.560246	29.423705	30.000000	0.000000	95.190573	180.082725	95.592105
2197.432000	122.387654	94.695316	98.116560	94.695316	29.376504	30.000000	0.000000	95.251415	180.242584	95.815175
2197.442000	122.510139	94.827952	98.258037	94.827952	29.381634	30.000000	0.000000	95.312258	180.390146	95.853970
2197.452000	122.613596	94.956938	98.395113	94.956938	29.391144	30.000000	0.000000	95.397437	180.525412	95.950957
2197.462000	122.652514	95.067671	98.511145	95.067671	29.413950	30.000000	0.000000	95.421774	180.660677	96.115835
2197.472000	122.694294	95.186922	98.636101	95.186922	29.438521	30.000000	0.000000	95.677312	180.783645	96.377701
2197.482000	122.794456	95.308607	98.765521	95.308607	29.446573	30.000000	0.000000	95.859839	180.808239	96.513483
2197.492000	122.855693	95.424208	98.887349	95.424208	29.464184	30.000000	0.000000	96.030198	180.832833	96.755951
2197.502000	122.894291	95.528856	98.997080	95.528856	29.485075	30.000000	0.000000	96.030198	180.832833	96.755951
2197.512000	122.964635	95.655409	99.130570	95.655409	29.503293	30.000000	0.000000	96.383084	180.783645	97.095406
2197.522000	123.045340	95.785611	99.268195	95.785611	29.519512	30.000000	0.000000	96.492600	180.746755	97.366970
2197.532000	123.087101	95.910947	99.399481	95.910947	29.545736	30.000000	0.000000	96.504768	180.722161	97.512451
2197.542000	123.148807	96.024113	99.518827	96.024113	29.562253	30.000000	0.000000	96.443926	180.685271	97.803413
2197.552000	123.239411	96.127546	99.629054	96.127546	29.567135	30.000000	0.000000	96.431757	180.623786	98.045881
2197.562000	123.382151	96.227327	99.737249	96.227327	29.555320	30.000000	0.000000	96.419589	180.562302	98.259252
2197.572000	123.382151	96.303988	99.816707	96.303988	29.578866	30.000000	0.000000	96.443926	180.488521	98.462926
2197.582000	123.433482	96.373349	99.890318	96.373349	29.584864	30.000000	0.000000	96.553442	180.439334	98.715092
2197.592000	123.504600	96.435408	99.957027	96.435408	29.582698	30.000000	0.000000	96.650790	180.291772	98.967259
2197.602000	123.578693	96.518154	100.045281	96.518154	29.585963	30.000000	0.000000	96.857654	180.230287	99.190330
2197.612000	123.760105	96.572912	100.108131	96.572912	29.548577	30.000000	0.000000	96.930665	180.119616	99.345509
2197.622000	123.760105	96.642272	100.180030	96.642272	29.569799	30.000000	0.000000	97.186203	180.045835	99.539484
2197.632000	123.843565	96.714066	100.257257	96.714066	29.566816	30.000000	0.000000	97.222709	179.996647	99.694663
2197.642000	124.053558	96.789511	100.342527	96.789511	29.527075	30.000000	0.000000	97.198372	179.922866	99.878939
2197.652000	124.144154	96.862522	100.421265	96.862522	29.522241	30.000000	0.000000	97.161866	179.861382	99.917734
2197.662000	124.247070	96.930665	100.495376	96.930665	29.512203	30.000000	0.000000	97.101024	179.763007	100.072913
2197.672000	124.305567	96.987857	100.556640	96.987857	29.512099	30.000000	0.000000	97.015844	179.689226	100.189298
2197.682000	124.386272	97.031663	100.604777	97.031663	29.501253	30.000000	0.000000	96.991508	179.541664	100.334779
2197.692000	124.448045	97.068169	100.644707	97.068169	29.493844	30.000000	0.000000	97.015844	179.381805	100.460862
2197.702000	124.489743	97.091289	100.670084	97.091289	29.488374	30.000000	0.000000	97.088855	179.172759	100.616042
2197.712000	124.550941	97.120493	100.702427	97.120493	29.478903	30.000000	0.000000	97.222709	178.963713	100.780920
2197.722000	124.644529	97.141180	100.727030	97.141180	29.457132	30.000000	0.000000	97.393067	178.705479	100.780920
2197.732000	124.725229	97.177685	100.767602	97.177685	29.444011	30.000000	0.000000	97.587763	178.508730	101.159170
2197.742000	124.725229	97.233660	100.825645	97.233660	29.460971	30.000000	0.000000	97.758122	178.275090	101.256158
2197.752000	124.967324	97.310322	100.913306	97.310322	29.411556	30.000000	0.000000	97.928480	178.127528	101.333747
2197.762000	125.078032	97.407670	101.017995	97.407670	29.407740	30.000000	0.000000	98.074502	177.918481	101.450132
2197.772000	125.219912	97.523270	101.142673	97.523270	29.400005	30.000000	0.000000	98.171850	177.795513	101.498626
2197.782000	125.384324	97.647389	101.276958	97.647389	29.387971	30.000000	0.000000	98.232692	177.672545	101.547119
2197.792000	125.384324	97.776374	101.410738	97.776374	29.426790	30.000000	0.000000	98.305703	177.537279	101.576215
2197.802000	125.627063	97.899276	101.546434	97.899276	29.390615	30.000000	0.000000	98.317872	177.377420	101.624709
2197.812000	125.666121	98.014877	101.667666	98.014877	29.413537	30.000000	0.000000	98.378714	177.192968	101.702299
2197.822000	125.736947	98.118309	101.777357	98.118309	29.423190	30.000000	0.000000	98.427388	177.094593	101.779889
2197.832000	125.788450	98.207139	101.871249	98.207139	29.434265	30.000000	0.000000	98.476062	176.897844	101.896273
2197.842000	125.921110	98.283800	101.955280	98.283800	29.417132	30.000000	0.000000	98.524736	176.651907	101.973863
2197.852000	126.001801	98.340992	102.017352	98.340992	29.409845	30.000000	0.000000	98.500399	176.467454	102.109645
2197.862000	126.053977	98.390883	102.070883	98.390883	29.408980	30.000000	0.000000	98.573410	176.196924	102.206633
2197.872000	126.134471	98.434689	102.119066	98.434689	29.397712	30.000000	0.000000	98.609915	175.987878	102.313318
2197.882000	126.205487	98.476062	102.164405	98.476062	29.388571	30.000000	0.000000	98.646421	175.483708	102.565485
2197.892000	126.276307	98.507700	102.199638	98.507700	29.376571	30.000000	0.000000	98.622084	175.127099	102.701267
2197.902000	126.356990	98.536904	102.232684	98.536904	29.360849	30.000000	0.000000	98.609915	174.868866	102.846748
2197.912000	126.418848	98.560025	102.258777	98.560025	29.349006	30.000000	0.000000	98.609915	174.868866	102.846748
2197.922000	126.589895	98.545422	102.249448	98.545422	29.292884	30.000000	0.000000	98.281366	174.327805	103.108614
2197.932000	126.680434	98.504050	102.209599	98.504050	29.253200	30.000000	0.000000	98.062334	174.044978	103.302588
2197.942000	126.758634	98.444424	102.150387	98.444424	29.211858	30.000000	0.000000	97.928480	173.762151	103.554755
2197.952000	126.758634	98.379931	102.083466	98.379931	29.192721	30.000000	0.000000	97.855470	173.503917	103.680839
2197.962000	126.862083	98.306920	102.011216	98.306920	29.139841	30.000000	0.000000	97.843301	173.221090	103.903909
2197.972000	126.891332	98.235126	101.937708	98.235126	29.109742	30.000000	0.000000	97.891975	172.925966	104.165775
2197.982000	126.952456	98.164549	101.866541	98.164549	29.070415	30.000000	0.000000	97.940649	172.593952	104.350051
2197.992000	126.994783	98.114658	101.816201	98.114658	29.042899	30.000000	0.000000	98.123176	172.298828	104.660410
2198.002000	127.146273	98.081803	101.787231	98.081803	28.987594	30.000000	0.000000	98.281366	172.052891	104.873782
2198.012000	127.269273	98.062334	101.771185	98.062334	28.944852	30.000000	0.000000	98.415220	171.843845	105.116250
2198.022000	127.269273	98.079370	101.788865	98.079370	28.949881	30.000000	0.000000	98.451725	171.647096	105.203539
2198.032000	127.433810	98.119526	101.836104	98.119526	28.912242	30.000000	0.000000	98.463894	171.487237	105.610885
2198.042000	127.686297	98.175501	101.902738	98.175501	28.852784	30.000000	0.000000	98.488230	171.327378	105.843655
2198.052000	127.745818	98.238777	101.970430	98.238777	28.853471	30.000000	0.000000	98.488230	171.204410	106.057027
2198.062000	127.826478	98.310571	102.047681	98.310571	28.850273	30.000000	0.000000	98.561241	171.118332	106.347989
2198.072000	127.907134	98.388449	102.131252	98.388449	28.848829	30.000000	0.000000	98.670758	170.946176	106.561361
2198.082000	127.978057	98.482146	102.230917	98.482146	28.854920	30.000000	0.000000	98.877622	170.823208	106.900816
2198.092000	128.049703	98.584361	102.339454	98.584361	28.863250	30.000000	0.000000	99.145328	170.687943	107.162682
2198.102000	128.120508	98.701179	102.463125	98.701179	28.876064	30.000000	0.000000	99.449540	170.552678	107.443945
2198.112000	128.171845	98.841116	102.610142	98.841116	28.901478	30.000000	0.000000	99.814595	170.343632	107.676715
2198.122000	128.259882	99.011475	102.789995	99.011475	28.924624	30.000000	0.000000	100.155312	170.294445	107.948279
2198.132000	128.373132	99.215906	103.006091	99.215906	28.949977	30.000000	0.000000	100.508198	170.183773	108.258639
2198.142000	128.505860	99.455625	103.259505	99.455625	28.979560	30.000000	0.000000	100.885421	170.060805	108.530203
2198.152000	128.626540	99.728199	103.546641	99.728199	29.022193	30.000000	0.000000	101.213970	169.987024	108.840562
2198.162000	128.738801	100.027543	103.861305	100.027543	29.074989	30.000000	0.000000	101.554688	169.913243	109.131524
2198.172000	128.881364	100.345141	104.195989	100.345141	29.123600	30.000000	0.000000	101.846731	169.864056	109.315800
2198.182000	128.961983	100.668822	104.534879	100.668822	29.192755	30.000000	0.000000	102.114438	169.851759	109.703750
2198.192000	128.961983	100.996154	104.874782	100.996154	29.287678	30.000000	0.000000	102.418650	169.827165	109.955917
2198.202000	129.102280	101.327137	105.223356	101.327137	29.340249	30.000000	0.000000	102.759368	169.790275	110.275975
2198.212000	129.296038	101.650819	105.566242	101.650819	29.373856	30.000000	0.000000	103.051411	169.741087	110.586334
2198.222000	129.296038	101.963549	105.891018	101.963549	29.464225	30.000000	0.000000	103.282612	169.642713	110.925790
2198.232000	129.387354	102.277496	106.220262	102.277496	29.526447	30.000000	0.000000	103.647667	169.593525	111.274944
2198.242000	129.499549	102.587792	106.546467	102.587792	29.580914	30.000000	0.000000	103.988384	169.532041	111.595003
2198.252000	129.700892	102.899305	106.877104	102.899305	29.607558	30.000000	0.000000	104.329102	169.409073	112.012048
2198.262000	129.700892	103.208385	107.198132	103.208385	29.696490	30.000000	0.000000	104.645483	169.298401	112.244818
2198.272000	129.782455	103.515030	107.519526	103.515030	29.758984	30.000000	0.000000	104.913189	169.175433	112.613370
2198.282000	129.864024	103.825327	107.844728	103.825327	29.822377	30.000000	0.000000	105.217401	169.015574	112.904332
2198.292000	129.934796	104.141707	108.175882	104.141707	29.890792	30.000000	0.000000	105.582456	168.880309	113.146800
2198.302000	129.934796	104.447136	108.493142	104.447136	29.978457	30.000000	0.000000	105.813657	168.708154	113.360173
2198.312000	130.246157	104.752565	108.821572	104.752565	29.966771	30.000000	0.000000	106.105701	168.560592	113.563846
2198.322000	130.347347	105.060428	109.145032	105.060428	30.022475	30.000000	0.000000	106.361239	168.388436	113.874206
2198.332000	130.419128	105.388977	109.488944	105.388977	30.093335	30.000000	0.000000	106.933158	168.031828	114.417335
2198.342000	130.492019	105.707791	109.822797	105.707791	30.160920	30.000000	0.000000	107.176528	167.810486	114.708297
2198.352000	130.573609	106.021738	110.151925	106.021738	30.224175	30.000000	0.000000	107.468571	167.601440	115.047753
2198.362000	130.642243	106.304047	110.447727	106.304047	30.282457	30.000000	0.000000	107.468571	167.601440	115.047753
2198.372000	130.833817	106.609476	110.772045	106.609476	30.307345	30.000000	0.000000	107.967479	167.269425	115.542389
2198.382000	130.945878	106.912472	111.090966	106.912472	30.357056	30.000000	0.000000	108.247355	167.072676	115.765460
2198.392000	131.066708	107.203298	111.397586	107.203298	30.400261	30.000000	0.000000	108.490724	166.912817	116.095217
2198.402000	131.118903	107.495342	111.702973	107.495342	30.466027	30.000000	0.000000	108.734094	166.752959	116.327986
2198.412000	131.271250	107.784952	112.009528	107.784952	30.498217	30.000000	0.000000	109.001801	166.494725	116.628647
2198.422000	131.351775	108.075779	112.314725	108.075779	30.554074	30.000000	0.000000	109.269508	166.347164	116.880815
2198.432000	131.351775	108.339835	112.589138	108.339835	30.628725	30.000000	0.000000	109.573720	166.138118	117.239668
2198.442000	131.400836	108.613626	112.875487	108.613626	30.689945	30.000000	0.000000	109.914438	165.929072	117.530630
2198.452000	131.531492	108.882550	113.159819	108.882550	30.722738	30.000000	0.000000	110.157807	165.707729	117.714906
2198.462000	131.634763	109.189196	113.482360	109.189196	30.775033	30.000000	0.000000	110.535031	165.510980	117.889484
2198.472000	131.683795	109.484890	113.791512	109.484890	30.842082	30.000000	0.000000	110.924422	165.289637	117.811894
2198.482000	131.775257	109.792753	114.114910	109.792753	30.898336	30.000000	0.000000	111.325982	165.129778	117.937977
2198.492000	131.865543	110.116435	114.454725	110.116435	30.959266	30.000000	0.000000	111.727543	164.945326	117.676111
2198.502000	131.927546	110.457152	114.811202	110.457152	31.034285	30.000000	0.000000	112.141271	164.773170	117.520932
2198.512000	131.998253	110.818556	115.189524	110.818556	31.112061	30.000000	0.000000	112.615842	164.527234	117.326957
2198.522000	132.038646	111.203081	115.590746	111.203081	31.206394	30.000000	0.000000	113.114751	164.305891	117.191174
2198.532000	132.089726	111.604641	116.010094	111.604641	31.301797	30.000000	0.000000	113.589322	164.072252	117.026296
2198.542000	132.132108	112.014719	116.437977	112.014719	31.402419	30.000000	0.000000	114.015219	163.814018	116.987501
2198.552000	132.161581	112.427231	116.867908	112.427231	31.508018	30.000000	0.000000	114.282926	163.494301	116.890513
2198.562000	132.202808	112.822707	117.280590	112.822707	31.604751	30.000000	0.000000	114.489790	163.174584	116.745032
2198.572000	132.255037	113.186545	117.660818	113.186545	31.688755	30.000000	0.000000	114.562801	162.940944	116.657744
2198.582000	132.294292	113.512660	118.001343	113.512660	31.766552	30.000000	0.000000	114.587138	162.633524	116.696539
2198.592000	132.356304	113.814439	118.317460	113.814439	31.829618	30.000000	0.000000	114.745329	162.301510	116.715936
2198.602000	132.397516	114.093097	118.608745	114.093097	31.893301	30.000000	0.000000	114.927856	161.994089	116.531660
2198.612000	132.489008	114.346202	118.875430	114.346202	31.932360	30.000000	0.000000	115.146889	161.723559	116.541359
2198.622000	132.530210	114.565235	119.104747	114.565235	31.979230	30.000000	0.000000	115.305079	161.391545	116.580154
2198.632000	132.530210	114.751413	119.298302	114.751413	32.031199	30.000000	0.000000	115.451101	161.108718	116.541359
2198.642000	132.560878	114.904736	119.458900	114.904736	32.063324	30.000000	0.000000	115.548449	160.850485	116.618949
2198.652000	132.641250	115.043457	119.606267	115.043457	32.074032	30.000000	0.000000	115.670134	160.567659	116.745032
2198.662000	132.693491	115.177310	119.747477	115.177310	32.093131	30.000000	0.000000	115.828325	160.309425	116.997200
2198.672000	132.762152	115.309947	119.888072	115.309947	32.106120	30.000000	0.000000	115.889167	160.100380	117.220271
2198.682000	132.824167	115.464487	120.051184	115.464487	32.127474	30.000000	0.000000	116.132537	159.915927	117.394848
2198.692000	132.894738	115.611725	120.207048	115.611725	32.143750	30.000000	0.000000	116.217716	159.669991	117.472438
2198.702000	132.953631	115.730977	120.333358	115.730977	32.156280	30.000000	0.000000	116.120369	159.510132	117.763400
2198.712000	133.025513	115.806421	120.414634	115.806421	32.152056	30.000000	0.000000	115.901336	159.362571	117.967074
2198.722000	133.025513	115.836843	120.446266	115.836843	32.160503	30.000000	0.000000	115.609292	159.190415	118.180446
2198.732000	133.135440	115.827108	120.440474	115.827108	32.119284	30.000000	0.000000	115.353753	159.030557	118.422915
2198.742000	133.175938	115.728543	120.339577	115.728543	32.077777	30.000000	0.000000	114.562801	158.575575	118.995140
2198.752000	133.207214	115.578871	120.185170	115.578871	32.025358	30.000000	0.000000	114.173409	158.329638	119.189115
2198.762000	133.207214	115.374440	119.972592	115.374440	31.968713	30.000000	0.000000	113.784018	158.083702	119.480078
2198.772000	133.237959	115.163925	119.754891	115.163925	31.899675	30.000000	0.000000	113.784018	158.083702	119.480078
2198.782000	133.249711	114.842677	119.421295	114.842677	31.806611	30.000000	0.000000	112.920055	157.419674	120.178387
2198.792000	133.279220	114.472754	119.037773	114.472754	31.693944	30.000000	0.000000	112.518495	157.063067	120.333567
2198.802000	133.279220	114.079712	118.629057	114.079712	31.585122	30.000000	0.000000	112.189945	156.755646	120.479048
2198.812000	133.310486	113.669634	118.203833	113.669634	31.460839	30.000000	0.000000	111.800554	156.374445	120.566337
2198.822000	133.321605	113.259556	117.777825	113.259556	31.343533	30.000000	0.000000	111.508510	155.956354	120.634228
2198.832000	133.321605	112.848261	117.350122	112.848261	31.229710	30.000000	0.000000	111.240803	155.612043	120.576036
2198.842000	133.392135	112.496591	116.987120	112.496591	31.108403	30.000000	0.000000	111.046107	155.267733	120.449952
2198.852000	133.413021	112.157090	116.634864	112.157090	31.007441	30.000000	0.000000	110.778400	154.861938	120.382061
2198.862000	133.444273	111.835842	116.301978	111.835842	30.908063	30.000000	0.000000	110.571536	154.357769	120.294772
2198.872000	133.475043	111.499992	115.953881	111.499992	30.804875	30.000000	0.000000	110.425514	154.062645	120.081400
2198.882000	133.506289	111.250538	115.695644	111.250538	30.725452	30.000000	0.000000	110.425514	153.656851	119.955316
2198.892000	133.535805	111.044890	115.482893	111.044890	30.658751	30.000000	0.000000	110.462020	153.251056	119.955316
2198.902000	133.538920	110.872098	115.303312	110.872098	30.610000	30.000000	0.000000	110.462020	152.820668	120.091098
2198.912000	133.578189	110.749196	115.176975	110.749196	30.562928	30.000000	0.000000	110.571536	152.439467	120.382061
2198.922000	133.617461	110.668884	115.094929	110.668884	30.527633	30.000000	0.000000	110.705389	152.070563	120.750613
2198.932000	133.689367	110.622644	115.049541	110.622644	30.490848	30.000000	0.000000	110.778400	151.787736	121.439224
2198.942000	133.810304	110.605608	115.036365	110.605608	30.445752	30.000000	0.000000	110.875748	151.541800	122.011450
2198.952000	133.991978	110.623861	115.062171	110.623861	30.390097	30.000000	0.000000	110.960928	151.345051	122.661266
2198.962000	133.991978	110.671318	115.111532	110.671318	30.403134	30.000000	0.000000	111.046107	151.197490	123.330480
2198.972000	134.183532	110.741895	115.192138	110.741895	30.358503	30.000000	0.000000	111.131287	151.148302	123.960898
2198.982000	134.484351	110.831942	115.297110	110.831942	30.282627	30.000000	0.000000	111.325982	151.160599	124.649510
2198.992000	134.636432	110.932940	115.407895	110.932940	30.259364	30.000000	0.000000	111.472004	151.209786	125.260531
2199.002000	134.705273	111.044890	115.526951	111.044890	30.266861	30.000000	0.000000	111.581521	151.295864	125.910347
2199.012000	134.793579	111.154407	115.644213	111.154407	30.267134	30.000000	0.000000	111.666700	151.369645	126.521369
2199.022000	134.963748	111.251755	115.751905	111.251755	30.236612	30.000000	0.000000	111.678869	151.480316	127.200281
2199.032000	134.963748	111.334500	115.837998	111.334500	30.259101	30.000000	0.000000	111.605858	151.566394	127.811303
2199.042000	135.035693	111.414812	115.924273	111.414812	30.256788	30.000000	0.000000	111.678869	151.578691	128.499914
2199.052000	135.086416	111.503642	116.018613	111.503642	30.263881	30.000000	0.000000	111.849227	151.578691	129.237020
2199.062000	135.148637	111.616809	116.138713	111.616809	30.273687	30.000000	0.000000	112.177777	151.541800	129.915933
2199.072000	135.148637	111.751880	116.279255	111.751880	30.310322	30.000000	0.000000	112.481989	151.504910	130.633641
2199.082000	135.168284	111.896685	116.430670	111.896685	30.342979	30.000000	0.000000	112.774033	151.406535	131.273759
2199.092000	135.197857	112.046357	116.587529	112.046357	30.373591	30.000000	0.000000	112.968729	151.332755	132.001166
2199.102000	135.321901	112.191162	116.742912	112.191162	30.370959	30.000000	0.000000	113.029571	151.160599	132.631585
2199.112000	135.321901	112.344485	116.902455	112.344485	30.412465	30.000000	0.000000	113.199930	151.086818	133.368691
2199.122000	135.383924	112.518495	117.085886	112.518495	30.438570	30.000000	0.000000	113.418963	150.963850	133.970014
2199.132000	135.485243	112.737527	117.317673	112.737527	30.463458	30.000000	0.000000	113.796186	150.853179	134.610133
2199.142000	135.679825	113.017403	117.616355	113.017403	30.472946	30.000000	0.000000	114.477622	150.631837	135.841876
2199.152000	135.751782	113.297278	117.910374	113.297278	30.523898	30.000000	0.000000	114.647981	150.545759	136.481994
2199.162000	135.863040	113.551600	118.179320	113.551600	30.554440	30.000000	0.000000	114.720992	150.349010	137.093017
2199.172000	135.964360	113.780367	118.421306	113.780367	30.581352	30.000000	0.000000	114.769666	150.410494	137.655545
2199.182000	136.054282	113.992099	118.645137	113.992099	30.607462	30.000000	0.000000	114.891351	150.312120	138.169580
2199.192000	136.093578	114.201397	118.864494	114.201397	30.650178	30.000000	0.000000	115.061710	150.213745	138.809698
2199.202000	136.153983	114.424080	119.098604	114.424080	30.689182	30.000000	0.000000	115.256405	150.152261	139.401323
2199.212000	136.212934	114.643113	119.328867	114.643113	30.727630	30.000000	0.000000	115.390259	150.053887	140.002647
2199.222000	136.253835	114.851195	119.547039	114.851195	30.769296	30.000000	0.000000	115.499775	149.930919	140.497284
2199.232000	136.294603	115.019120	119.723413	115.019120	30.800204	30.000000	0.000000	115.475438	149.734170	141.137403
2199.242000	136.345450	115.105516	119.815319	115.105516	30.805767	30.000000	0.000000	115.341585	149.598905	141.806619
2199.252000	136.386226	115.148106	119.861236	115.148106	30.803070	30.000000	0.000000	115.073878	149.426750	142.534027
2199.262000	136.446762	115.150540	119.866121	115.150540	30.782796	30.000000	0.000000	114.745329	149.242298	143.174146
2199.272000	136.489125	115.111600	119.827233	115.111600	30.757751	30.000000	0.000000	114.380274	149.057846	143.562097
2199.282000	136.520219	115.047107	119.761305	115.047107	30.729782	30.000000	0.000000	114.246420	148.799613	143.823964
2199.292000	136.541445	114.942458	119.653191	114.942458	30.694508	30.000000	0.000000	114.015219	148.541380	144.105228
2199.302000	136.561095	114.786702	119.491812	114.786702	30.646146	30.000000	0.000000	113.698838	148.307741	144.580468
2199.312000	136.623108	114.584705	119.283932	114.584705	30.570896	30.000000	0.000000	113.370289	148.049508	144.725950
2199.322000	136.655781	114.341335	119.031841	114.341335	30.494757	30.000000	0.000000	113.066077	147.668308	144.958721
2199.332000	136.705040	114.059026	118.739846	114.059026	30.402610	30.000000	0.000000	112.652348	147.397778	145.249684
2199.342000	136.724691	113.747512	118.416303	113.747512	30.312871	30.000000	0.000000	112.226451	147.041171	145.521250
2199.352000	136.765547	113.414096	118.070763	113.414096	30.210120	30.000000	0.000000	111.739711	146.721454	145.686129
2199.362000	136.786705	113.052691	117.695327	113.052691	30.106678	30.000000	0.000000	111.131287	146.389441	145.831611
2199.372000	136.816318	112.660866	117.288536	112.660866	29.992327	30.000000	0.000000	110.462020	146.008240	146.103177
2199.382000	136.847204	112.211849	116.822243	112.211849	29.862397	30.000000	0.000000	109.756247	145.590149	146.268056
2199.392000	136.848719	111.712940	116.302893	111.712940	29.729117	30.000000	0.000000	109.026138	145.282729	146.723899
2199.402000	136.868370	111.182394	115.751285	111.182394	29.581377	30.000000	0.000000	108.393376	144.827747	147.043958
2199.412000	136.878056	110.633595	115.180295	110.633595	29.432149	30.000000	0.000000	107.882300	144.434250	147.354319
2199.422000	136.889564	110.068977	114.592901	110.068977	29.278144	30.000000	0.000000	107.419897	143.979268	147.616187
2199.432000	136.930383	109.510444	114.012917	109.510444	29.116172	30.000000	0.000000	107.067011	143.548881	147.878054
2199.442000	136.930383	108.956778	113.436487	108.956778	28.968966	30.000000	0.000000	106.689788	143.204570	148.091427
2199.452000	136.969683	108.412846	112.871629	108.412846	28.811574	30.000000	0.000000	106.300397	142.811073	148.275704
2199.462000	137.012044	107.899336	112.338539	107.899336	28.661403	30.000000	0.000000	105.996185	142.368388	148.353294
2199.472000	137.062841	107.433283	111.855151	107.433283	28.521247	30.000000	0.000000	105.801489	141.876517	148.430884
2199.482000	137.103674	107.019554	111.425866	107.019554	28.398314	30.000000	0.000000	105.618961	141.630581	148.411487
2199.492000	137.154175	106.680053	111.074202	106.680053	28.292080	30.000000	0.000000	105.631130	141.323161	148.469679
2199.502000	137.204985	106.430600	110.816295	106.430600	28.209719	30.000000	0.000000	105.898837	140.905070	148.430884
2199.512000	137.307802	106.312565	110.697078	106.312565	28.145686	30.000000	0.000000	106.701957	140.179559	148.217511
2199.522000	137.307802	106.311348	110.695811	106.311348	28.145364	30.000000	0.000000	107.407729	139.896733	147.897451
2199.532000	137.389752	106.345420	110.734223	106.345420	28.128280	30.000000	0.000000	107.407729	139.896733	147.897451
2199.542000	137.389752	106.493876	110.888805	106.493876	28.167547	30.000000	0.000000	108.174344	139.626204	147.848957
2199.552000	137.610523	106.862581	111.280669	106.862581	28.194429	30.000000	0.000000	109.987448	139.085145	147.247633
2199.562000	137.651299	107.354188	111.794073	107.354188	28.311030	30.000000	0.000000	110.912254	138.851506	146.917874
2199.572000	137.721496	107.951661	112.418806	107.951661	28.445913	30.000000	0.000000	111.776217	138.728538	146.597815
2199.582000	137.800097	108.648915	113.147786	108.648915	28.604089	30.000000	0.000000	112.591505	138.568680	146.277755
2199.592000	137.983043	109.422831	113.960481	109.422831	28.747952	30.000000	0.000000	113.370289	138.408822	145.889804

