LabVIEW Measurement	
Writer_Version	0.92
Reader_Version	1
Separator	Tab
Multi_Headings	Yes
X_Columns	One
Time_Pref	Absolute
Operator	LHRI
Description	This is a HULC measurement file.
Date	2010/10/18
Time	20:06:09.313999
***End_of_Header***	
	
Channels	10										
Samples	1709	1709	1709	1709	1709	1709	1709	1709	1709	1709	
Date	2010/10/18	2010/10/18	2010/10/18	2010/10/18	2010/10/18	2010/10/18	2010/10/18	2010/10/18	2010/10/18	2010/10/18	
Time	20:06:27.095999	20:06:27.095999	20:06:27.095999	20:06:27.095999	20:06:27.095999	20:06:27.095999	20:06:27.095999	20:06:27.095999	20:06:27.095999	20:06:27.095999	
X_Dimension	Time	Time	Time	Time	Time	Time	Time	Time	Time	Time	
X0	3.9526399998664856E+3	3.9526399998664856E+3	3.9526399998664856E+3	3.9526399998664856E+3	3.9526399998664856E+3	3.9526399998664856E+3	3.9526399998664856E+3	3.9526399998664856E+3	3.9526399998664856E+3	3.9526399998664856E+3	
Delta_X	0.010000	0.010000	0.010000	0.010000	0.010000	0.010000	0.010000	0.010000	0.010000	0.010000	
***End_of_Header***											
X_Value	Joint Angle (Resampled)	Brachialis Motor Mount (Prime Mover) (Resampled)	Biceps (Resampled)	Brachialis (Resampled)	Brachioradialis (Resampled)	Supinator (Resampled)	Pronator Terres (Resampled)	Brachialis Motor Mount (Resampled)	Triceps Motor Mount (Resampled)	Biceps Motor Mount (Resampled)	Comment
3952.640000	-10.930636	4.036668	4.036668	4.036668	0.000000	30.000000	0.000000	4.036668	11.629406	3.929788
3952.650000	-10.939164	4.018416	4.018416	4.018416	0.000000	30.000000	0.000000	4.000163	11.076053	4.007377
3952.660000	-10.939164	4.016387	4.016387	4.016387	0.000000	30.000000	0.000000	4.012331	10.719449	3.958884
3952.670000	-10.939164	4.012331	4.012331	4.012331	0.000000	30.000000	0.000000	4.000163	10.412031	3.958884
3952.680000	-10.939164	4.009898	4.009898	4.009898	0.000000	30.000000	0.000000	4.000163	10.116909	3.929788
3952.690000	-10.939164	3.998135	3.998135	3.998135	0.000000	30.000000	0.000000	3.939321	9.784898	3.997678
3952.700000	-10.908308	4.003640	4.003640	4.003640	0.000000	30.000000	0.000000	4.036668	9.538964	4.017076
3952.710000	-10.918689	4.007768	4.007768	4.007768	0.000000	30.000000	0.000000	4.036668	9.280732	3.997678
3952.720000	-10.918689	4.019092	4.019092	4.019092	0.000000	30.000000	0.000000	4.109679	9.047095	4.026774
3952.730000	-10.918689	4.034234	4.034234	4.034234	0.000000	30.000000	0.000000	4.170521	8.825754	4.075268
3952.740000	-10.918689	4.052487	4.052487	4.052487	0.000000	30.000000	0.000000	4.219195	8.678193	3.997678
3952.750000	-10.918689	4.087776	4.087776	4.087776	0.000000	30.000000	0.000000	4.353048	8.395369	4.084966
3952.760000	-10.918689	4.137666	4.137666	4.137666	0.000000	30.000000	0.000000	4.511238	8.333885	4.104364
3952.770000	-10.908308	4.205810	4.205810	4.205810	0.000000	30.000000	0.000000	4.681596	8.161731	4.230447
3952.780000	-10.910407	4.289772	4.289772	4.289772	0.000000	30.000000	0.000000	4.839786	8.087951	4.278940
3952.790000	-10.912264	4.401722	4.401722	4.401722	0.000000	30.000000	0.000000	5.058818	8.026467	4.405023
3952.800000	-10.912264	4.523406	4.523406	4.523406	0.000000	30.000000	0.000000	5.253513	8.026467	4.472913
3952.810000	-10.922646	4.669427	4.669427	4.669427	0.000000	30.000000	0.000000	5.496882	8.038764	4.598996
3952.820000	-10.922646	4.832485	4.832485	4.832485	0.000000	30.000000	0.000000	5.740251	8.124841	4.792970
3952.830000	-10.912264	5.016228	5.016228	5.016228	0.000000	30.000000	0.000000	6.007957	8.210918	4.860861
3952.840000	-10.903740	5.221875	5.221875	5.221875	0.000000	30.000000	0.000000	6.275662	8.358479	5.103327
3952.850000	-10.903740	5.444557	5.444557	5.444557	0.000000	30.000000	0.000000	6.579873	8.530633	5.258506
3952.860000	-10.891786	5.683059	5.683059	5.683059	0.000000	30.000000	0.000000	6.896253	8.764270	5.423384
3952.870000	-10.891786	5.936163	5.936163	5.936163	0.000000	30.000000	0.000000	7.212633	8.973314	5.665851
3952.880000	-10.891786	6.200218	6.200218	6.200218	0.000000	30.000000	0.000000	7.480339	9.206952	5.869523
3952.890000	-10.879593	6.480092	6.480092	6.480092	0.000000	30.000000	0.000000	7.857560	9.514370	6.102291
3952.900000	-10.881164	6.778219	6.778219	6.778219	0.000000	30.000000	0.000000	8.234782	9.797195	6.335059
3952.910000	-10.870782	7.089731	7.089731	7.089731	0.000000	30.000000	0.000000	8.612004	10.104613	6.567828
3952.920000	-10.870782	7.415846	7.415846	7.415846	0.000000	30.000000	0.000000	9.001394	10.473514	6.916980
3952.930000	-10.869209	7.757779	7.757779	7.757779	0.000000	30.000000	0.000000	9.427290	10.756339	7.072159
3952.940000	-10.869209	8.114315	8.114315	8.114315	0.000000	30.000000	0.000000	9.841017	11.088350	7.353420
3952.950000	-10.869209	8.480585	8.480585	8.480585	0.000000	30.000000	0.000000	10.242576	11.518735	7.615285
3952.960000	-10.879593	8.904047	8.904047	8.904047	0.000000	30.000000	0.000000	11.130872	12.293429	8.177808
3952.970000	-10.881164	9.344544	9.344544	9.344544	0.000000	30.000000	0.000000	11.617610	12.723814	8.439672
3952.980000	-10.881164	9.758272	9.758272	9.758272	0.000000	30.000000	0.000000	11.617610	12.723814	8.439672
3952.990000	-10.881164	10.175649	10.175649	10.175649	0.000000	30.000000	0.000000	12.031337	13.117309	8.750030
3953.000000	-10.872643	10.641701	10.641701	10.641701	0.000000	30.000000	0.000000	12.895297	13.953486	9.351348
3953.010000	-10.860688	11.110186	11.110186	11.110186	0.000000	30.000000	0.000000	13.296856	14.322387	9.574417
3953.020000	-10.860688	11.579888	11.579888	11.579888	0.000000	30.000000	0.000000	13.698415	14.740476	9.952666
3953.030000	-10.850304	12.044723	12.044723	12.044723	0.000000	30.000000	0.000000	14.075636	15.097080	10.253325
3953.040000	-10.843881	12.502256	12.502256	12.502256	0.000000	30.000000	0.000000	14.416353	15.502872	10.495792
3953.050000	-10.833496	12.958573	12.958573	12.958573	0.000000	30.000000	0.000000	14.805743	15.884071	10.806149
3953.060000	-10.813014	13.357698	13.357698	13.357698	0.000000	30.000000	0.000000	15.122123	16.252972	11.068014
3953.070000	-10.782143	13.747088	13.747088	13.747088	0.000000	30.000000	0.000000	15.511513	16.621874	11.339576
3953.080000	-10.763241	14.168117	14.168117	14.168117	0.000000	30.000000	0.000000	15.827893	16.978479	11.543249
3953.090000	-10.742754	14.570892	14.570892	14.570892	0.000000	30.000000	0.000000	16.059093	17.310490	11.756620
3953.100000	-10.692976	14.916476	14.916476	14.916476	0.000000	30.000000	0.000000	16.351136	17.691688	12.076676
3953.110000	-10.672482	15.240157	15.240157	15.240157	0.000000	30.000000	0.000000	16.533663	18.085183	12.144567
3953.120000	-10.564410	15.548018	15.548018	15.548018	0.000000	30.000000	0.000000	16.777032	18.355711	12.348239
3953.130000	-10.514627	15.833977	15.833977	15.833977	0.000000	30.000000	0.000000	16.935221	18.810690	12.513116
3953.140000	-10.432149	16.107767	16.107767	16.107767	0.000000	30.000000	0.000000	17.154253	19.154998	12.658596
3953.150000	-10.390684	16.358437	16.358437	16.358437	0.000000	30.000000	0.000000	17.312443	19.523899	12.794378
3953.160000	-10.256341	16.590854	16.590854	16.590854	0.000000	30.000000	0.000000	17.446296	19.941988	12.978653
3953.170000	-10.163448	16.805019	16.805019	16.805019	0.000000	30.000000	0.000000	17.653160	20.335483	13.114434
3953.180000	-10.082593	16.999714	16.999714	16.999714	0.000000	30.000000	0.000000	17.774844	20.728978	13.211421
3953.190000	-9.946174	17.191976	17.191976	17.191976	0.000000	30.000000	0.000000	17.981708	21.147066	13.240517
3953.200000	-9.946174	17.370852	17.370852	17.370852	0.000000	30.000000	0.000000	18.139898	21.589748	13.453888
3953.210000	-9.749447	17.542427	17.542427	17.542427	0.000000	30.000000	0.000000	18.249414	22.020133	13.560573
3953.220000	-9.658220	17.701833	17.701833	17.701833	0.000000	30.000000	0.000000	18.371098	22.413628	13.696355
3953.230000	-9.542460	17.858806	17.858806	17.858806	0.000000	30.000000	0.000000	18.504951	22.856310	13.735150
3953.240000	-9.455929	18.003611	18.003611	18.003611	0.000000	30.000000	0.000000	18.602299	23.335882	13.822438
3953.250000	-9.352360	18.138681	18.138681	18.138681	0.000000	30.000000	0.000000	18.663141	23.753971	13.900027
3953.260000	-9.262950	18.277401	18.277401	18.277401	0.000000	30.000000	0.000000	18.833499	24.221246	13.997014
3953.270000	-9.188608	18.402736	18.402736	18.402736	0.000000	30.000000	0.000000	18.906510	24.614741	14.055206
3953.280000	-9.089700	18.528071	18.528071	18.528071	0.000000	30.000000	0.000000	19.028194	25.032830	14.103699
3953.290000	-9.025662	18.642454	18.642454	18.642454	0.000000	30.000000	0.000000	19.125542	25.414028	14.249179
3953.300000	-8.988015	18.753187	18.753187	18.753187	0.000000	30.000000	0.000000	19.247226	25.758336	14.268577
3953.310000	-8.955219	18.860270	18.860270	18.860270	0.000000	30.000000	0.000000	19.320237	26.102644	14.365564
3953.320000	-8.891324	18.964918	18.964918	18.964918	0.000000	30.000000	0.000000	19.417584	26.422359	14.433454
3953.330000	-8.851871	19.065916	19.065916	19.065916	0.000000	30.000000	0.000000	19.514932	26.742074	14.481948
3953.340000	-8.851871	19.169348	19.169348	19.169348	0.000000	30.000000	0.000000	19.636617	27.024898	14.540140
3953.350000	-8.798230	19.275214	19.275214	19.275214	0.000000	30.000000	0.000000	19.721796	27.283129	14.617729
3953.360000	-8.630783	19.388380	19.388380	19.388380	0.000000	30.000000	0.000000	19.965165	27.787295	14.724415
3953.370000	-8.449122	19.506414	19.506414	19.506414	0.000000	30.000000	0.000000	20.086849	28.008636	14.637127
3953.380000	-8.219495	19.612280	19.612280	19.612280	0.000000	30.000000	0.000000	20.086849	28.008636	14.637127
3953.390000	-8.112243	19.716928	19.716928	19.716928	0.000000	30.000000	0.000000	20.172028	28.229977	14.792305
3953.400000	-7.967267	19.831312	19.831312	19.831312	0.000000	30.000000	0.000000	20.391060	28.611175	14.966882
3953.410000	-7.764831	19.949346	19.949346	19.949346	0.000000	30.000000	0.000000	20.500576	28.746439	15.025074
3953.420000	-7.725306	20.066163	20.066163	20.066163	0.000000	30.000000	0.000000	20.585755	28.918593	15.073567
3953.430000	-7.700651	20.181763	20.181763	20.181763	0.000000	30.000000	0.000000	20.670934	29.016967	15.122060
3953.440000	-7.646867	20.296146	20.296146	20.296146	0.000000	30.000000	0.000000	20.780451	29.152231	15.180252
3953.450000	-7.572316	20.408096	20.408096	20.408096	0.000000	30.000000	0.000000	20.841293	29.250605	15.219047
3953.460000	-7.477145	20.505444	20.505444	20.505444	0.000000	30.000000	0.000000	20.938640	29.361275	15.286938
3953.470000	-7.394365	20.593056	20.593056	20.593056	0.000000	30.000000	0.000000	20.962977	29.447352	15.267541
3953.480000	-7.268320	20.692838	20.692838	20.692838	0.000000	30.000000	0.000000	21.084662	29.471946	15.374226
3953.490000	-7.233407	20.788968	20.788968	20.788968	0.000000	30.000000	0.000000	21.133335	29.570319	15.364527
3953.500000	-7.214816	20.869280	20.869280	20.869280	0.000000	30.000000	0.000000	21.194178	29.631803	15.442117
3953.510000	-7.163207	20.941074	20.941074	20.941074	0.000000	30.000000	0.000000	21.218515	29.680990	15.432418
3953.520000	-7.119945	21.010434	21.010434	21.010434	0.000000	30.000000	0.000000	21.279357	29.693287	15.471213
3953.530000	-7.088954	21.067626	21.067626	21.067626	0.000000	30.000000	0.000000	21.242851	29.705583	15.490610
3953.540000	-7.088954	21.116300	21.116300	21.116300	0.000000	30.000000	0.000000	21.267188	29.717880	15.480911
3953.550000	-6.994077	21.161323	21.161323	21.161323	0.000000	30.000000	0.000000	21.291525	29.668693	15.500309
3953.560000	-6.574864	21.195395	21.195395	21.195395	0.000000	30.000000	0.000000	21.279357	29.656396	15.296637
3953.570000	-6.246584	21.223382	21.223382	21.223382	0.000000	30.000000	0.000000	21.242851	29.631803	15.529405
3953.580000	-6.089583	21.240418	21.240418	21.240418	0.000000	30.000000	0.000000	21.255020	29.594913	15.461514
3953.590000	-5.932581	21.253803	21.253803	21.253803	0.000000	30.000000	0.000000	21.267188	29.521133	15.480911
3953.600000	-5.835434	21.261104	21.261104	21.261104	0.000000	30.000000	0.000000	21.267188	29.471946	15.461514
3953.610000	-5.752596	21.263538	21.263538	21.263538	0.000000	30.000000	0.000000	21.242851	29.410462	15.442117
3953.620000	-5.709069	21.262321	21.262321	21.262321	0.000000	30.000000	0.000000	21.267188	29.348978	15.451815
3953.630000	-5.653233	21.261104	21.261104	21.261104	0.000000	30.000000	0.000000	21.230683	29.262901	15.374226
3953.640000	-5.582795	21.257454	21.257454	21.257454	0.000000	30.000000	0.000000	21.230683	29.201418	15.403322
3953.650000	-5.491800	21.251369	21.251369	21.251369	0.000000	30.000000	0.000000	21.230683	29.078451	15.442117
3953.660000	-5.467074	21.246502	21.246502	21.246502	0.000000	30.000000	0.000000	21.230683	28.992374	15.374226
3953.670000	-5.446517	21.248936	21.248936	21.248936	0.000000	30.000000	0.000000	21.267188	28.795626	15.393623
3953.680000	-5.436340	21.250153	21.250153	21.250153	0.000000	30.000000	0.000000	21.267188	28.783329	15.374226
3953.690000	-5.417921	21.250153	21.250153	21.250153	0.000000	30.000000	0.000000	21.267188	28.672659	15.374226
3953.700000	-5.354144	21.251369	21.251369	21.251369	0.000000	30.000000	0.000000	21.279357	28.586582	15.345130
3953.710000	-5.282020	21.259887	21.259887	21.259887	0.000000	30.000000	0.000000	21.328031	28.451318	15.306335
3953.720000	-5.220187	21.261104	21.261104	21.261104	0.000000	30.000000	0.000000	21.279357	28.365241	15.316034
3953.730000	-5.104636	21.269622	21.269622	21.269622	0.000000	30.000000	0.000000	21.315862	28.131603	15.286938
3953.740000	-4.912666	21.278140	21.278140	21.278140	0.000000	30.000000	0.000000	21.315862	27.984043	15.219047
3953.750000	-4.650552	21.286658	21.286658	21.286658	0.000000	30.000000	0.000000	21.315862	27.984043	15.219047
3953.760000	-4.524650	21.293959	21.293959	21.293959	0.000000	30.000000	0.000000	21.303694	27.885669	15.257842
3953.770000	-4.353183	21.293959	21.293959	21.293959	0.000000	30.000000	0.000000	21.267188	27.627438	15.180252
3953.780000	-4.192078	21.292742	21.292742	21.292742	0.000000	30.000000	0.000000	21.255020	27.504470	15.083266
3953.790000	-4.078518	21.284224	21.284224	21.284224	0.000000	30.000000	0.000000	21.182009	27.393800	15.102663
3953.800000	-4.003996	21.279357	21.279357	21.279357	0.000000	30.000000	0.000000	21.230683	27.258536	15.073567
3953.810000	-3.898345	21.262321	21.262321	21.262321	0.000000	30.000000	0.000000	21.157672	27.098679	15.044471
3953.820000	-3.873420	21.250153	21.250153	21.250153	0.000000	30.000000	0.000000	21.157672	26.988008	15.025074
3953.830000	-3.844517	21.230683	21.230683	21.230683	0.000000	30.000000	0.000000	21.121167	26.803557	15.092964
3953.840000	-3.780365	21.205129	21.205129	21.205129	0.000000	30.000000	0.000000	21.060325	26.655997	14.957183
3953.850000	-3.662897	21.178359	21.178359	21.178359	0.000000	30.000000	0.000000	21.048156	26.422359	14.995978
3953.860000	-3.621931	21.151588	21.151588	21.151588	0.000000	30.000000	0.000000	21.035988	26.360875	15.015375
3953.870000	-3.589110	21.127251	21.127251	21.127251	0.000000	30.000000	0.000000	21.023819	26.176425	14.966882
3953.880000	-3.545915	21.100481	21.100481	21.100481	0.000000	30.000000	0.000000	20.987314	26.041161	14.957183
3953.890000	-3.494590	21.079794	21.079794	21.079794	0.000000	30.000000	0.000000	20.975146	25.856710	14.937786
3953.900000	-3.333747	21.048156	21.048156	21.048156	0.000000	30.000000	0.000000	20.914303	25.709149	14.976580
3953.910000	-3.251390	21.020169	21.020169	21.020169	0.000000	30.000000	0.000000	20.877798	25.536995	14.937786
3953.920000	-3.115264	20.981230	20.981230	20.981230	0.000000	30.000000	0.000000	20.768282	25.340248	14.908689
3953.930000	-2.655040	20.931339	20.931339	20.931339	0.000000	30.000000	0.000000	20.622261	25.229577	14.918388
3953.940000	-2.473426	20.874148	20.874148	20.874148	0.000000	30.000000	0.000000	20.488408	25.094313	14.937786
3953.950000	-2.353421	20.803571	20.803571	20.803571	0.000000	30.000000	0.000000	20.342386	24.872972	14.869895
3953.960000	-2.297577	20.728126	20.728126	20.728126	0.000000	30.000000	0.000000	20.281544	24.737708	14.811703
3953.970000	-2.223048	20.635646	20.635646	20.635646	0.000000	30.000000	0.000000	20.099017	24.319620	14.811703
3953.980000	-2.223048	20.563852	20.563852	20.563852	0.000000	30.000000	0.000000	20.269376	24.147466	14.840799
3953.990000	-2.189677	20.499359	20.499359	20.499359	0.000000	30.000000	0.000000	20.330218	23.876938	14.869895
3954.000000	-2.160894	20.450686	20.450686	20.450686	0.000000	30.000000	0.000000	20.427566	23.680191	14.986279
3954.010000	-2.084068	20.417831	20.417831	20.417831	0.000000	30.000000	0.000000	20.549250	23.421959	15.092964
3954.020000	-2.053275	20.402012	20.402012	20.402012	0.000000	30.000000	0.000000	20.610092	23.237509	15.170554
3954.030000	-2.045224	20.408096	20.408096	20.408096	0.000000	30.000000	0.000000	20.683103	23.028464	15.257842
3954.040000	-2.030829	20.429999	20.429999	20.429999	0.000000	30.000000	0.000000	20.707440	22.844014	15.296637
3954.050000	-2.010402	20.470155	20.470155	20.470155	0.000000	30.000000	0.000000	20.743945	22.573486	15.374226
3954.060000	-2.002633	20.517612	20.517612	20.517612	0.000000	30.000000	0.000000	20.756114	22.364442	15.393623
3954.070000	-1.957172	20.583322	20.583322	20.583322	0.000000	30.000000	0.000000	20.756114	22.143101	15.403322
3954.080000	-1.885550	20.641730	20.641730	20.641730	0.000000	30.000000	0.000000	20.853461	21.921760	15.461514
3954.090000	-1.692211	20.705006	20.705006	20.705006	0.000000	30.000000	0.000000	20.962977	21.688122	15.510007
3954.100000	-1.636655	20.771933	20.771933	20.771933	0.000000	30.000000	0.000000	21.096830	21.491374	15.413021
3954.110000	-1.552362	20.841293	20.841293	20.841293	0.000000	30.000000	0.000000	21.242851	21.245440	15.713680
3954.120000	-1.455404	20.922821	20.922821	20.922821	0.000000	30.000000	0.000000	21.425378	21.024099	15.723378
3954.130000	-1.358447	21.017735	21.017735	21.017735	0.000000	30.000000	0.000000	21.632242	20.753571	15.830064
3954.140000	-1.284253	21.129685	21.129685	21.129685	0.000000	30.000000	0.000000	21.826937	20.532230	15.975544
3954.150000	-1.179267	21.251369	21.251369	21.251369	0.000000	30.000000	0.000000	21.960790	20.298593	16.033736
3954.160000	-1.131403	21.392523	21.392523	21.392523	0.000000	30.000000	0.000000	22.167653	20.089548	16.101627
3954.170000	-1.061645	21.548280	21.548280	21.548280	0.000000	30.000000	0.000000	22.313675	19.868208	16.198614
3954.180000	-0.997778	21.707686	21.707686	21.707686	0.000000	30.000000	0.000000	22.447528	19.634570	16.276203
3954.190000	-0.931568	21.867093	21.867093	21.867093	0.000000	30.000000	0.000000	22.557044	19.474712	16.402286
3954.200000	-0.791133	22.014331	22.014331	22.014331	0.000000	30.000000	0.000000	22.569212	19.277965	16.305299
3954.210000	-0.704203	22.143317	22.143317	22.143317	0.000000	30.000000	0.000000	22.532707	19.105811	16.353792
3954.220000	-0.584166	22.247965	22.247965	22.247965	0.000000	30.000000	0.000000	22.471865	18.995140	16.373190
3954.230000	-0.514434	22.327060	22.327060	22.327060	0.000000	30.000000	0.000000	22.423191	18.847580	16.334395
3954.240000	-0.514434	22.385469	22.385469	22.385469	0.000000	30.000000	0.000000	22.411022	18.724613	16.324696
3954.250000	-0.148754	22.425625	22.425625	22.425625	0.000000	30.000000	0.000000	22.362349	18.638536	16.276203
3954.260000	-0.072159	22.445094	22.445094	22.445094	0.000000	30.000000	0.000000	22.362349	18.503272	16.314998
3954.270000	-0.041458	22.451178	22.451178	22.451178	0.000000	30.000000	0.000000	22.374517	18.417195	16.314998
3954.280000	-0.041458	22.451178	22.451178	22.451178	0.000000	30.000000	0.000000	22.447528	18.294227	16.218011
3954.290000	-0.005909	22.462130	22.462130	22.462130	0.000000	30.000000	0.000000	22.666560	18.195854	16.567163
3954.300000	0.002010	22.486467	22.486437	22.486467	0.000331	30.000000	0.000000	22.812581	18.060590	16.751438
3954.310000	0.012359	22.514454	22.514269	22.514454	0.002041	30.000000	0.000000	22.812581	18.060590	16.751438
3954.320000	0.043055	22.565562	22.564914	22.565562	0.007126	30.000000	0.000000	22.982939	18.048293	16.916316
3954.330000	0.117564	22.650741	22.648965	22.650741	0.019536	30.000000	0.000000	23.274982	17.974513	17.226673
3954.340000	0.150688	22.754173	22.751886	22.754173	0.025157	30.000000	0.000000	23.445340	17.999106	17.255769
3954.350000	0.199630	22.869773	22.866727	22.869773	0.033503	30.000000	0.000000	23.518351	18.035996	17.391551
3954.360000	0.265881	22.987807	22.983728	22.987807	0.044861	30.000000	0.000000	23.542688	18.109777	17.449743
3954.370000	0.393855	23.102190	23.096116	23.102190	0.066813	30.000000	0.000000	23.518351	18.158964	17.333359
3954.380000	0.637359	23.204405	23.194524	23.204405	0.108687	30.000000	0.000000	23.469677	18.208150	17.275167
3954.390000	0.780239	23.278633	23.266493	23.278633	0.133542	30.000000	0.000000	23.408835	18.380304	17.246071
3954.400000	0.931380	23.338258	23.323722	23.338258	0.159900	30.000000	0.000000	23.408835	18.478678	17.226673
3954.410000	1.121433	23.399100	23.381541	23.399100	0.193153	30.000000	0.000000	23.421004	18.589349	17.207276
3954.420000	1.282917	23.451425	23.431281	23.451425	0.221580	30.000000	0.000000	23.506183	18.663129	17.284865
3954.430000	1.380263	23.478195	23.456491	23.478195	0.238743	30.000000	0.000000	23.542688	18.749206	17.381852
3954.440000	1.462621	23.506183	23.483150	23.506183	0.253360	30.000000	0.000000	23.725215	18.835283	17.507935
3954.450000	1.475510	23.541471	23.518200	23.541471	0.255987	30.000000	0.000000	23.871236	18.884470	17.634018
3954.460000	1.460562	23.595012	23.571925	23.595012	0.253958	30.000000	0.000000	24.078100	18.970547	17.779498
3954.470000	1.460562	23.670457	23.647296	23.670457	0.254770	30.000000	0.000000	24.272795	19.068921	18.002567
3954.480000	1.468396	23.767804	23.744423	23.767804	0.257196	30.000000	0.000000	24.443153	19.118108	18.148048
3954.490000	1.480839	23.891922	23.868219	23.891922	0.260741	30.000000	0.000000	24.650017	19.216481	18.332322
3954.500000	1.488670	24.039161	24.015184	24.039161	0.263742	30.000000	0.000000	24.881217	19.277965	18.555392
3954.510000	1.503663	24.201001	24.176619	24.201001	0.268205	30.000000	0.000000	25.039407	19.400932	18.768763
3954.520000	1.503663	24.385961	24.361393	24.385961	0.270255	30.000000	0.000000	25.355787	19.499306	18.923942
3954.530000	1.503663	24.584307	24.559539	24.584307	0.272453	30.000000	0.000000	25.526145	19.597680	19.137313
3954.540000	1.587669	24.789954	24.763575	24.789954	0.290163	30.000000	0.000000	25.781682	19.745240	19.311889
3954.550000	1.613010	25.000468	24.973439	25.000468	0.297323	30.000000	0.000000	25.976377	19.855911	19.515561
3954.560000	1.679303	25.212199	25.183814	25.212199	0.312233	30.000000	0.000000	26.195409	20.003471	19.622247
3954.570000	1.750850	25.427580	25.397726	25.427580	0.328396	30.000000	0.000000	26.426610	20.138735	19.835617
3954.580000	1.817142	25.651480	25.620216	25.651480	0.343907	30.000000	0.000000	26.682147	20.323186	20.000495
3954.590000	1.858076	25.879030	25.846773	25.879030	0.354822	30.000000	0.000000	26.925516	20.458450	20.165372
3954.600000	1.914033	26.109014	26.075484	26.109014	0.368826	30.000000	0.000000	27.181054	20.655198	20.398141
3954.610000	2.008339	26.343865	26.308355	26.343865	0.390603	30.000000	0.000000	27.387917	20.827352	20.630909
3954.620000	2.143058	26.572631	26.534394	26.572631	0.420614	30.000000	0.000000	27.643455	21.024099	20.776389
3954.630000	2.227478	26.809916	26.769806	26.809916	0.441212	30.000000	0.000000	27.898992	21.208550	20.970363
3954.640000	2.303645	27.050851	27.008986	27.050851	0.460517	30.000000	0.000000	28.191035	21.454484	20.989760
3954.650000	2.380277	27.297871	27.254207	27.297871	0.480305	30.000000	0.000000	28.446572	21.638935	21.329214
3954.660000	2.477150	27.549758	27.503882	27.549758	0.504629	30.000000	0.000000	28.714278	21.909463	21.503790
3954.670000	2.520657	27.807729	27.760604	27.807729	0.518376	30.000000	0.000000	29.006321	22.044727	21.668667
3954.680000	2.566255	28.070567	28.022129	28.070567	0.532824	30.000000	0.000000	29.310532	22.253771	21.911134
3954.690000	2.609765	28.334623	28.284892	28.334623	0.547035	30.000000	0.000000	29.566070	22.438222	22.066313
3954.700000	2.627852	28.625448	28.574856	28.625448	0.556513	30.000000	0.000000	30.089313	22.844014	22.493055
3954.710000	2.663603	28.919925	28.868111	28.919925	0.569956	30.000000	0.000000	30.332682	23.016168	22.706426
3954.720000	2.681687	29.188848	29.136193	29.188848	0.579197	30.000000	0.000000	30.332682	23.016168	22.706426
3954.730000	2.712725	29.458987	29.405225	29.458987	0.591385	30.000000	0.000000	30.600388	23.225212	22.958592
3954.740000	2.745849	29.748596	29.693636	29.748596	0.604558	30.000000	0.000000	31.087126	23.495740	23.346539
3954.750000	2.781609	30.035772	29.979552	30.035772	0.618418	30.000000	0.000000	31.318326	23.815454	23.521115
3954.760000	2.799686	30.316863	30.259745	30.316863	0.628300	30.000000	0.000000	31.525190	24.012202	23.676294
3954.770000	2.853524	30.584569	30.525827	30.584569	0.646154	30.000000	0.000000	31.683379	24.245840	23.850870
3954.780000	2.889293	30.841323	30.781339	30.841323	0.659825	30.000000	0.000000	31.878075	24.454884	23.957555
3954.790000	2.940555	31.088342	31.026794	31.088342	0.677027	30.000000	0.000000	32.036264	24.737708	24.112734
3954.800000	3.006871	31.297640	31.234266	31.297640	0.697112	30.000000	0.000000	32.182286	24.983643	24.200022
3954.810000	3.047732	31.500853	31.436192	31.500853	0.711271	30.000000	0.000000	32.364813	25.229577	24.287310
3954.820000	3.136848	31.715017	31.647993	31.715017	0.737267	30.000000	0.000000	32.474329	25.512402	24.442489
3954.830000	3.210895	31.914580	31.845525	31.914580	0.759609	30.000000	0.000000	32.596013	25.832117	24.568572
3954.840000	3.210895	32.076420	32.007015	32.076420	0.763461	30.000000	0.000000	32.705529	26.053457	24.636463
3954.850000	3.378824	32.232177	32.158745	32.232177	0.807748	30.000000	0.000000	32.875887	26.336282	24.772244
3954.860000	3.470892	32.380632	32.304828	32.380632	0.833838	30.000000	0.000000	33.009740	26.606810	24.859532
3954.870000	3.504090	32.518135	32.441273	32.518135	0.845483	30.000000	0.000000	33.058414	26.852744	24.975917
3954.880000	3.547609	32.660506	32.582337	32.660506	0.859857	30.000000	0.000000	33.301783	27.123272	25.140794
3954.890000	3.609147	32.798009	32.718133	32.798009	0.878638	30.000000	0.000000	33.411299	27.369207	25.276576
3954.900000	3.718988	32.936730	32.854044	32.936730	0.909545	30.000000	0.000000	33.569489	27.590547	25.392960
3954.910000	3.770118	33.074233	32.990046	33.074233	0.926059	30.000000	0.000000	33.739847	27.836482	25.586933
3954.920000	3.823952	33.214170	33.128404	33.214170	0.943428	30.000000	0.000000	33.873700	28.020933	25.664523
3954.930000	3.846756	33.358975	33.272314	33.358975	0.953265	30.000000	0.000000	34.044059	28.229977	25.780907
3954.940000	3.913080	33.507430	33.418863	33.507430	0.974234	30.000000	0.000000	34.190080	28.488208	25.936086
3954.950000	3.956601	33.651018	33.561069	33.651018	0.989436	30.000000	0.000000	34.311764	28.672659	26.071867
3954.960000	3.987083	33.801906	33.710849	33.801906	1.001633	30.000000	0.000000	34.518628	28.918593	26.197950
3954.970000	4.030602	33.960096	33.867600	33.960096	1.017454	30.000000	0.000000	34.640313	29.115341	26.382225
3954.980000	4.163257	34.109768	34.013764	34.109768	1.056045	30.000000	0.000000	34.798502	29.348978	26.459814
3954.990000	4.239899	34.265524	34.167281	34.265524	1.080677	30.000000	0.000000	34.968861	29.545726	26.585897
3955.000000	4.280677	34.416413	34.316774	34.416413	1.096026	30.000000	0.000000	35.078377	29.767067	26.527705
3955.010000	4.334508	34.562434	34.461096	34.562434	1.114721	30.000000	0.000000	35.200061	30.037595	26.828364
3955.020000	4.378030	34.708456	34.605652	34.708456	1.130837	30.000000	0.000000	35.333914	30.308123	26.867159
3955.030000	4.444361	34.860561	34.755720	34.860561	1.153260	30.000000	0.000000	35.565115	30.750805	27.119325
3955.040000	4.467168	34.998065	34.892261	34.998065	1.163840	30.000000	0.000000	35.565115	30.750805	27.119325
3955.050000	4.510693	35.134352	35.027085	35.134352	1.179930	30.000000	0.000000	35.674631	30.972146	27.245407
3955.060000	4.628088	35.279156	35.168601	35.279156	1.216111	30.000000	0.000000	35.966673	31.451718	27.478176
3955.070000	4.663976	35.426394	35.314503	35.426394	1.230806	30.000000	0.000000	36.112695	31.648465	27.555765
3955.080000	4.717228	35.569982	35.456334	35.569982	1.250130	30.000000	0.000000	36.234379	31.845213	27.720643
3955.090000	4.753122	35.709919	35.594942	35.709919	1.264751	30.000000	0.000000	36.368232	32.054257	27.769136
3955.100000	4.813999	35.855941	35.738990	35.855941	1.286453	30.000000	0.000000	36.538591	32.189521	27.885520
3955.110000	4.857523	36.001962	35.883456	36.001962	1.303563	30.000000	0.000000	36.660275	32.447752	28.011603
3955.120000	4.887954	36.149200	36.029452	36.149200	1.317230	30.000000	0.000000	36.806296	32.619906	28.089192
3955.130000	4.913554	36.289137	36.168286	36.289137	1.329370	30.000000	0.000000	36.964486	32.816654	28.195878
3955.140000	4.954285	36.446110	36.323713	36.446110	1.346373	30.000000	0.000000	37.134845	32.964214	28.321961
3955.150000	5.056529	36.604300	36.478791	36.604300	1.380602	30.000000	0.000000	37.256529	33.160962	28.428646
3955.160000	5.086951	36.751538	36.624753	36.751538	1.394639	30.000000	0.000000	37.439056	33.308523	28.554729
3955.170000	5.107664	36.901210	36.773381	36.901210	1.406119	30.000000	0.000000	37.609414	33.468380	28.612921
3955.180000	5.148380	37.053316	36.923919	37.053316	1.423367	30.000000	0.000000	37.755436	33.615941	28.719606
3955.190000	5.148380	37.205422	37.075493	37.205422	1.429210	30.000000	0.000000	37.889288	33.849578	28.835991
3955.200000	5.293559	37.355094	37.220898	37.355094	1.476151	30.000000	0.000000	38.035310	33.960249	28.903881
3955.210000	5.323967	37.504765	37.369244	37.504765	1.490732	30.000000	0.000000	38.156994	34.144700	28.991169
3955.220000	5.413113	37.653221	37.514843	37.653221	1.522154	30.000000	0.000000	38.290847	34.329150	29.068759
3955.230000	5.469153	37.790724	37.650377	37.790724	1.543822	30.000000	0.000000	38.339521	34.550491	29.146348
3955.240000	5.553364	37.933095	37.790009	37.933095	1.573948	30.000000	0.000000	38.558553	34.722646	29.253034
3955.250000	5.553364	38.074249	37.930630	38.074249	1.579805	30.000000	0.000000	38.668069	34.882503	29.330623
3955.260000	5.686033	38.210536	38.062893	38.210536	1.624068	30.000000	0.000000	38.801922	35.116141	29.427610
3955.270000	5.788197	38.341955	38.191090	38.341955	1.659511	30.000000	0.000000	38.923607	35.251405	29.495501
3955.280000	5.788197	38.475808	38.324416	38.475808	1.665304	30.000000	0.000000	39.093965	35.398965	29.543994
3955.290000	5.864825	38.608444	38.454479	38.608444	1.693609	30.000000	0.000000	39.215650	35.657196	29.737968
3955.300000	5.877972	38.739863	38.585021	38.739863	1.703259	30.000000	0.000000	39.349502	35.767867	29.786461
3955.310000	5.918637	38.877367	38.720879	38.877367	1.721368	30.000000	0.000000	39.532029	35.927724	29.951339
3955.320000	5.951875	39.019737	38.861777	39.019737	1.737570	30.000000	0.000000	39.714556	36.087582	30.106518
3955.330000	5.997507	39.166976	39.007178	39.166976	1.757772	30.000000	0.000000	39.811904	36.272032	30.155011
3955.340000	6.063850	39.308130	39.145946	39.308130	1.784023	30.000000	0.000000	39.970093	36.407296	30.319889
3955.350000	6.081685	39.454151	39.290876	39.454151	1.796026	30.000000	0.000000	40.128283	36.554857	30.368382
3955.360000	6.119909	39.596522	39.431606	39.596522	1.814072	30.000000	0.000000	40.225631	36.751605	30.426574
3955.370000	6.150274	39.740110	39.573758	39.740110	1.829873	30.000000	0.000000	40.359484	36.911462	30.523561
3955.380000	6.186254	39.877613	39.709688	39.877613	1.847173	30.000000	0.000000	40.469000	37.083616	30.562356
3955.390000	6.293240	40.015117	39.843636	40.015117	1.886284	30.000000	0.000000	40.590684	37.268067	30.620548
3955.400000	6.293240	40.151403	39.979339	40.151403	1.892709	30.000000	0.000000	40.712369	37.464814	30.610849
3955.410000	6.359583	40.274305	40.099855	40.274305	1.918950	30.000000	0.000000	40.761043	37.649265	30.766028
3955.420000	6.436206	40.404507	40.227338	40.404507	1.948857	30.000000	0.000000	41.016580	37.833716	30.814521
3955.430000	6.576262	40.550529	40.368763	40.550529	1.999416	30.000000	0.000000	41.272118	38.190321	30.998796
3955.440000	6.576262	40.696550	40.514130	40.696550	2.006615	30.000000	0.000000	41.430307	38.337882	31.076386
3955.450000	6.657902	40.826752	40.641426	40.826752	2.038593	30.000000	0.000000	41.430307	38.337882	31.076386
3955.460000	6.744791	40.959388	40.770977	40.959388	2.072521	30.000000	0.000000	41.551992	38.497739	31.056988
3955.470000	6.790427	41.107844	40.917441	41.107844	2.094432	30.000000	0.000000	41.844035	38.854344	31.280058
3955.480000	6.836066	41.264817	41.072372	41.264817	2.116890	30.000000	0.000000	42.038730	39.051092	31.425538
3955.490000	6.884637	41.427874	41.233264	41.427874	2.140710	30.000000	0.000000	42.221257	39.210949	31.580717
3955.500000	6.930281	41.584847	41.388174	41.584847	2.163404	30.000000	0.000000	42.282099	39.395400	31.561319
3955.510000	7.014397	41.753988	41.554061	41.753988	2.199200	30.000000	0.000000	42.452457	39.567554	31.677704
3955.520000	7.060040	41.906094	41.704101	41.906094	2.221920	30.000000	0.000000	42.537636	39.752005	31.706800
3955.530000	7.098367	42.043597	41.839815	42.043597	2.241606	30.000000	0.000000	42.647153	39.911862	31.726197
3955.540000	7.098367	42.175017	41.970597	42.175017	2.248612	30.000000	0.000000	42.744500	40.084016	31.861979
3955.550000	7.225346	42.318604	42.109729	42.318604	2.297625	30.000000	0.000000	42.866185	40.256170	31.881376
3955.560000	7.263689	42.458542	42.247836	42.458542	2.317760	30.000000	0.000000	42.951364	40.428325	31.891075
3955.570000	7.347780	42.580226	42.366409	42.580226	2.351987	30.000000	0.000000	43.060880	40.649666	31.929869
3955.580000	7.424385	42.684875	42.468241	42.684875	2.382973	30.000000	0.000000	43.085217	40.871007	32.017157
3955.590000	7.559867	42.789523	42.568293	42.789523	2.433533	30.000000	0.000000	43.267744	41.067754	32.007459
3955.600000	7.603390	42.896606	42.673512	42.896606	2.454034	30.000000	0.000000	43.352923	41.276798	32.123843
3955.610000	7.669547	42.996387	42.770777	42.996387	2.481706	30.000000	0.000000	43.450270	41.473546	32.172336
3955.620000	7.746145	43.098602	42.870138	43.098602	2.513108	30.000000	0.000000	43.559786	41.645700	32.249926
3955.630000	7.894213	43.202034	42.968525	43.202034	2.568595	30.000000	0.000000	43.681471	41.854744	32.211131
3955.640000	7.934733	43.309116	43.073795	43.309116	2.588537	30.000000	0.000000	43.815324	41.990008	32.356611
3955.650000	7.983390	43.416199	43.178809	43.416199	2.611285	30.000000	0.000000	43.937008	42.199053	32.414803
3955.660000	8.023903	43.523281	43.284065	43.523281	2.631374	30.000000	0.000000	44.022188	42.334317	32.492393
3955.670000	8.116090	43.637664	43.394988	43.637664	2.669445	30.000000	0.000000	44.204714	42.469581	32.637873
3955.680000	8.156593	43.754482	43.509907	43.754482	2.690321	30.000000	0.000000	44.253388	42.580251	32.676668
3955.690000	8.205267	43.866431	43.619727	43.866431	2.713753	30.000000	0.000000	44.387241	42.776999	32.793052
3955.700000	8.248790	43.978381	43.729698	43.978381	2.735517	30.000000	0.000000	44.472420	42.961450	32.831847
3955.710000	8.324695	44.096415	43.844704	44.096415	2.768820	30.000000	0.000000	44.630610	43.158197	32.773654
3955.720000	8.383620	44.213232	43.959017	44.213232	2.796370	30.000000	0.000000	44.727958	43.330351	32.928833
3955.730000	8.449969	44.327616	44.070667	44.327616	2.826436	30.000000	0.000000	44.825305	43.477912	33.006423
3955.740000	8.603358	44.440782	44.178363	44.440782	2.886608	30.000000	0.000000	44.946990	43.674660	33.045217
3955.750000	8.677106	44.549081	44.283701	44.549081	2.919186	30.000000	0.000000	45.020001	44.055858	33.219794
3955.760000	8.712528	44.665899	44.398704	44.665899	2.939146	30.000000	0.000000	45.190359	44.215715	33.268287
3955.770000	8.781933	44.774198	44.504157	44.774198	2.970450	30.000000	0.000000	45.287706	44.363276	33.297383
3955.780000	8.855670	44.889798	44.616718	44.889798	3.003886	30.000000	0.000000	45.409391	44.510837	33.374973
3955.790000	8.985982	45.001748	44.723834	45.001748	3.057058	30.000000	0.000000	45.506739	44.695288	33.452562
3955.800000	9.022115	45.117348	44.837565	45.117348	3.077617	30.000000	0.000000	45.628423	44.818255	33.404069
3955.810000	9.065630	45.225647	44.943798	45.225647	3.100348	30.000000	0.000000	45.713602	45.002706	33.578645
3955.820000	9.152421	45.335163	45.049841	45.335163	3.138545	30.000000	0.000000	45.823118	45.137970	33.598042
3955.830000	9.346927	45.445896	45.153603	45.445896	3.215224	30.000000	0.000000	45.932634	45.297827	33.656234
3955.840000	9.400664	45.560280	45.265512	45.560280	3.242448	30.000000	0.000000	46.090824	45.408498	33.801715
3955.850000	9.471972	45.675880	45.378050	45.675880	3.276137	30.000000	0.000000	46.176003	45.531465	33.821112
3955.860000	9.605375	45.784179	45.481299	45.784179	3.331684	30.000000	0.000000	46.273351	45.691322	33.927797
3955.870000	9.648886	45.891262	45.586252	45.891262	3.355107	30.000000	0.000000	46.358530	45.789696	33.937496
3955.880000	9.744052	45.994694	45.685880	45.994694	3.396948	30.000000	0.000000	46.443709	45.937257	33.908400
3955.890000	9.744052	46.099342	45.789826	46.099342	3.404677	30.000000	0.000000	46.553225	46.109411	34.034483
3955.900000	9.927560	46.202774	45.886521	46.202774	3.478779	30.000000	0.000000	46.662742	46.183191	34.053880
3955.910000	10.095641	46.303772	45.981275	46.303772	3.547466	30.000000	0.000000	46.723584	46.355345	34.053880
3955.920000	10.184784	46.402337	46.076199	46.402337	3.587510	30.000000	0.000000	46.808763	46.441422	34.121771
3955.930000	10.263722	46.489950	46.160574	46.489950	3.623129	30.000000	0.000000	46.808763	46.527500	34.044182
3955.940000	10.330044	46.575129	46.242942	46.575129	3.654058	30.000000	0.000000	46.942616	46.687357	34.073278
3955.950000	10.409751	46.659091	46.323645	46.659091	3.689906	30.000000	0.000000	47.015627	46.798027	34.053880
3955.960000	10.596091	46.743053	46.400768	46.743053	3.765139	30.000000	0.000000	47.112974	46.847214	34.034483
3955.970000	10.693285	46.830666	46.484477	46.830666	3.808076	30.000000	0.000000	47.234659	46.920995	34.112072
3955.980000	10.773004	46.918279	46.568761	46.918279	3.844703	30.000000	0.000000	47.319838	46.982478	34.024784
3955.990000	10.872325	47.003458	46.649956	47.003458	3.888528	30.000000	0.000000	47.405017	47.043962	34.141168
3956.000000	10.926012	47.086204	46.730264	47.086204	3.915336	30.000000	0.000000	47.490196	47.117742	34.131470
3956.010000	10.985057	47.173817	46.815214	47.173817	3.944625	30.000000	0.000000	47.599712	47.191523	34.150867
3956.020000	11.038742	47.261429	46.900338	47.261429	3.972002	30.000000	0.000000	47.684892	47.203819	34.131470
3956.030000	11.110415	47.353910	46.989673	47.353910	4.006609	30.000000	0.000000	47.733565	47.277600	34.092675
3956.040000	11.289459	47.440306	47.069294	47.440306	4.081132	30.000000	0.000000	47.806576	47.339083	34.063579
3956.050000	11.369206	47.527919	47.153492	47.527919	4.118688	30.000000	0.000000	47.891755	47.388270	34.024784
3956.060000	11.445692	47.607013	47.229341	47.607013	4.154398	30.000000	0.000000	47.903924	47.474347	33.889003
3956.070000	11.542854	47.678807	47.297226	47.678807	4.197396	30.000000	0.000000	47.952597	47.523534	33.947195
3956.080000	11.834624	47.748167	47.355975	47.748167	4.314118	30.000000	0.000000	48.013440	47.548128	33.869605
3956.090000	11.900912	47.812660	47.417647	47.812660	4.345142	30.000000	0.000000	48.049945	47.597315	33.869605
3956.100000	11.949823	47.878370	47.481121	47.878370	4.369738	30.000000	0.000000	48.147293	47.671095	33.879304
3956.110000	12.036792	47.931911	47.531203	47.931911	4.407793	30.000000	0.000000	48.135124	47.720282	33.927797
3956.120000	12.151999	48.000054	47.594773	48.000054	4.458091	30.000000	0.000000	48.366325	47.818656	33.937496
3956.130000	12.221608	48.071848	47.663537	48.071848	4.491420	30.000000	0.000000	48.451504	47.867843	33.976291
3956.140000	12.305241	48.136341	47.724565	48.136341	4.529538	30.000000	0.000000	48.451504	47.867843	33.976291
3956.150000	12.341541	48.202051	47.788444	48.202051	4.549676	30.000000	0.000000	48.548852	47.941623	33.985989
3956.160000	12.417984	48.287230	47.870215	48.287230	4.587165	30.000000	0.000000	48.755715	48.076887	33.995688
3956.170000	12.590191	48.373626	47.949818	48.373626	4.661890	30.000000	0.000000	48.816558	48.187557	34.044182
3956.180000	12.650986	48.461239	48.034523	48.461239	4.693879	30.000000	0.000000	48.889568	48.261338	33.995688
3956.190000	12.766208	48.553719	48.122122	48.553719	4.747572	30.000000	0.000000	48.974748	48.347415	34.015086
3956.200000	12.855269	48.636465	48.200980	48.636465	4.790325	30.000000	0.000000	48.974748	48.445789	34.053880
3956.210000	12.981015	48.725294	48.284554	48.725294	4.848140	30.000000	0.000000	49.023421	48.556459	34.073278
3956.220000	13.123683	48.794654	48.348214	48.794654	4.910842	30.000000	0.000000	49.059927	48.642536	34.092675
3956.230000	13.203478	48.862798	48.412891	48.862798	4.948977	30.000000	0.000000	49.132937	48.765503	34.015086
3956.240000	13.417901	48.939459	48.481186	48.939459	5.041008	30.000000	0.000000	49.218117	48.826987	34.170264
3956.250000	13.451212	49.012470	48.552320	49.012470	5.061650	30.000000	0.000000	49.278959	48.974548	34.112072
3956.260000	13.510352	49.070878	48.608059	49.070878	5.091013	30.000000	0.000000	49.339801	49.036031	34.141168
3956.270000	13.597256	49.125636	48.659179	49.125636	5.131035	30.000000	0.000000	49.364138	49.183592	34.131470
3956.280000	13.755948	49.174310	48.701679	49.174310	5.198942	30.000000	0.000000	49.376306	49.331153	34.238155
3956.290000	13.844969	49.225418	48.749085	49.225418	5.239655	30.000000	0.000000	49.485823	49.404933	34.247854
3956.300000	13.914641	49.280176	48.800797	49.280176	5.273164	30.000000	0.000000	49.522328	49.515604	34.286649
3956.310000	14.003656	49.341018	48.857827	49.341018	5.315104	30.000000	0.000000	49.631844	49.626274	34.286649
3956.320000	14.239624	49.404294	48.911924	49.404294	5.416065	30.000000	0.000000	49.692686	49.712351	34.451526
3956.330000	14.298785	49.466353	48.971214	49.466353	5.446526	30.000000	0.000000	49.753529	49.823022	34.383635
3956.340000	14.357949	49.527195	49.029293	49.527195	5.476924	30.000000	0.000000	49.826539	49.847615	34.470923
3956.350000	14.465057	49.594122	49.091639	49.594122	5.527309	30.000000	0.000000	49.948224	49.995176	34.529116
3956.360000	14.650010	49.659831	49.149919	49.659831	5.609033	30.000000	0.000000	49.996898	50.056660	34.567910
3956.370000	14.716212	49.734059	49.220958	49.734059	5.644111	30.000000	0.000000	50.106414	50.155033	34.645500
3956.380000	14.716212	49.818021	49.304054	49.818021	5.653639	30.000000	0.000000	50.215930	50.253407	34.693993
3956.390000	14.798580	49.899550	49.381711	49.899550	5.696232	30.000000	0.000000	50.301109	50.339484	34.713390
3956.400000	14.969931	49.996898	49.471725	49.996898	5.776900	30.000000	0.000000	50.495804	50.585419	34.761884
3956.410000	15.009825	50.089378	49.561758	50.089378	5.803822	30.000000	0.000000	50.556646	50.708386	34.878268
3956.420000	15.079536	50.175774	49.644659	50.175774	5.842263	30.000000	0.000000	50.556646	50.708386	34.878268
3956.430000	15.161495	50.268254	49.733114	50.268254	5.886536	30.000000	0.000000	50.678331	50.868244	34.878268
3956.440000	15.355614	50.364385	49.820987	50.364385	5.977379	30.000000	0.000000	50.787847	51.089585	34.946159
3956.450000	15.404707	50.454431	49.908227	50.454431	6.008246	30.000000	0.000000	50.848689	51.261739	34.994652
3956.460000	15.507306	50.542044	49.991049	50.542044	6.060950	30.000000	0.000000	50.873026	51.409299	35.062543
3956.470000	15.606342	50.634525	50.078802	50.634525	6.112947	30.000000	0.000000	51.031216	51.544563	35.081940
3956.480000	15.929924	50.720921	50.152061	50.720921	6.257459	30.000000	0.000000	51.079890	51.655234	35.091639
3956.490000	16.071098	50.806100	50.230949	50.806100	6.326660	30.000000	0.000000	51.152901	51.802795	35.120735
3956.500000	16.166752	50.879110	50.299510	50.879110	6.375609	30.000000	0.000000	51.225911	51.962652	35.178927
3956.510000	16.279426	50.955772	50.371020	50.955772	6.432271	30.000000	0.000000	51.323259	52.061026	35.169228
3956.520000	16.404780	51.044601	50.454059	51.044601	6.495970	30.000000	0.000000	51.444944	52.183993	35.237119
3956.530000	16.504224	51.128564	50.533255	51.128564	6.548394	30.000000	0.000000	51.517954	52.343851	35.266215
3956.540000	16.504224	51.208876	50.612632	51.208876	6.558680	30.000000	0.000000	51.590965	52.466818	35.295311
3956.550000	16.658587	51.294055	50.690905	51.294055	6.634647	30.000000	0.000000	51.700481	52.577488	35.363202
3956.560000	16.724714	51.381668	50.774948	51.381668	6.673918	30.000000	0.000000	51.749155	52.737346	35.353503
3956.570000	16.724714	51.464413	50.856716	51.464413	6.684666	30.000000	0.000000	51.858671	52.835720	35.401997
3956.580000	16.853213	51.550809	50.937137	51.550809	6.750396	30.000000	0.000000	51.943850	52.983280	35.450490
3956.590000	16.906635	51.639639	51.022844	51.639639	6.784742	30.000000	0.000000	52.041198	53.069358	35.411695
3956.600000	16.992269	51.729685	51.108498	51.729685	6.833066	30.000000	0.000000	52.126377	53.192325	35.566874
3956.610000	17.147233	51.813648	51.185433	51.813648	6.910357	30.000000	0.000000	52.162882	53.364479	35.586272
3956.620000	17.222834	51.893959	51.261829	51.893959	6.953441	30.000000	0.000000	52.248062	53.401369	35.644464
3956.630000	17.294764	51.971838	51.335952	51.971838	6.994739	30.000000	0.000000	52.296735	53.548930	35.644464
3956.640000	17.397345	52.052149	51.411271	52.052149	7.049659	30.000000	0.000000	52.394083	53.708787	35.702656
3956.650000	17.569193	52.123943	51.475448	52.123943	7.133451	30.000000	0.000000	52.418420	53.794864	35.751149
3956.660000	17.635276	52.198171	51.546157	52.198171	7.172157	30.000000	0.000000	52.491431	53.905535	35.760848
3956.670000	17.741030	52.267531	51.610489	52.267531	7.227461	30.000000	0.000000	52.552273	54.053096	35.809341
3956.680000	17.916589	52.335674	51.670852	52.335674	7.313046	30.000000	0.000000	52.625284	54.139173	35.906328
3956.690000	17.998557	52.402601	51.733689	52.402601	7.358036	30.000000	0.000000	52.710463	54.274437	35.857835
3956.700000	18.095238	52.470744	51.797133	52.470744	7.409720	30.000000	0.000000	52.807810	54.299030	35.954822
3956.710000	18.191524	52.538888	51.860581	52.538888	7.461370	30.000000	0.000000	52.844316	54.483481	35.983918
3956.720000	18.294083	52.607031	51.923767	52.607031	7.515903	30.000000	0.000000	52.929495	54.569558	36.100302
3956.730000	18.392524	52.677608	51.989505	52.677608	7.569128	30.000000	0.000000	53.002506	54.680229	36.148795
3956.740000	18.445857	52.754269	52.063036	52.754269	7.603564	30.000000	0.000000	53.160696	54.778603	36.197289
3956.750000	18.531599	52.830930	52.135263	52.830930	7.652339	30.000000	0.000000	53.185032	54.938460	36.265179
3956.760000	18.607647	52.916110	52.216272	52.916110	7.698210	30.000000	0.000000	53.343222	55.086021	36.391262
3956.770000	18.813828	53.002506	52.293239	53.002506	7.801935	30.000000	0.000000	53.416233	55.184395	36.371865
3956.780000	18.910172	53.081601	52.367393	53.081601	7.856282	30.000000	0.000000	53.416233	55.184395	36.371865
3956.790000	18.969417	53.165563	52.447833	53.165563	7.895025	30.000000	0.000000	53.550086	55.282768	36.546441
3956.800000	19.058139	53.260477	52.537875	53.260477	7.948621	30.000000	0.000000	53.756950	55.504110	36.624031
3956.810000	19.259166	53.354174	52.622142	53.354174	8.052356	30.000000	0.000000	53.781287	55.639374	36.701620
3956.820000	19.373816	53.441787	52.703886	53.441787	8.116908	30.000000	0.000000	53.805624	55.700857	36.788908
3956.830000	19.462857	53.540351	52.797456	53.540351	8.171845	30.000000	0.000000	53.988150	55.823824	36.818004
3956.840000	19.567510	53.634048	52.885573	53.634048	8.233235	30.000000	0.000000	54.097667	55.946792	36.885895
3956.850000	19.688128	53.735047	52.980214	53.735047	8.303157	30.000000	0.000000	54.195014	56.008275	36.924690
3956.860000	19.688128	53.829961	53.073795	53.829961	8.317823	30.000000	0.000000	54.292362	56.094352	37.138061
3956.870000	19.802650	53.928525	53.166257	53.928525	8.384950	30.000000	0.000000	54.401878	56.205023	37.070170
3956.880000	19.868621	54.040475	53.273899	54.040475	8.432334	30.000000	0.000000	54.535731	56.217320	37.235047
3956.890000	19.950567	54.151208	53.379667	54.151208	8.486945	30.000000	0.000000	54.657415	56.401771	37.254445
3956.900000	20.042472	54.253423	53.476610	54.253423	8.544939	30.000000	0.000000	54.779100	56.475551	37.332034
3956.910000	20.144295	54.360505	53.577920	54.360505	8.608432	30.000000	0.000000	54.852111	56.561628	37.390226
3956.920000	20.144295	54.477322	53.693056	54.477322	8.626931	30.000000	0.000000	54.973795	56.660002	37.487213
3956.930000	20.391239	54.581971	53.785863	54.581971	8.757189	30.000000	0.000000	55.034638	56.795266	37.487213
3956.940000	20.464360	54.692704	53.891911	54.692704	8.808725	30.000000	0.000000	55.204996	56.893640	37.574501
3956.950000	20.572237	54.802220	53.995282	54.802220	8.876317	30.000000	0.000000	55.290175	56.992014	37.506611
3956.960000	20.700668	54.909303	54.095366	54.909303	8.953299	30.000000	0.000000	55.363186	57.078091	37.622995
3956.970000	20.889025	55.016385	54.192885	55.016385	9.058494	30.000000	0.000000	55.472702	57.237948	37.690886
3956.980000	20.997582	55.122250	54.292556	55.122250	9.126641	30.000000	0.000000	55.594387	57.287135	37.719982
3956.990000	21.102169	55.222032	54.386382	55.222032	9.192148	30.000000	0.000000	55.655229	57.373212	37.768475
3957.000000	21.138741	55.323030	54.484291	55.323030	9.226130	30.000000	0.000000	55.789082	57.459289	37.836366
3957.010000	21.283881	55.422811	54.576350	55.422811	9.311078	30.000000	0.000000	55.849924	57.582257	37.855763
3957.020000	21.327099	55.529894	54.679943	55.529894	9.349461	30.000000	0.000000	56.044619	57.668334	37.933353
3957.030000	21.362512	55.638193	54.785062	55.638193	9.384442	30.000000	0.000000	56.117630	57.803598	37.952750
3957.040000	21.454535	55.739191	54.880546	55.739191	9.445096	30.000000	0.000000	56.214978	57.914268	37.933353
3957.050000	21.617919	55.842623	54.975325	55.842623	9.540280	30.000000	0.000000	56.324494	58.061829	38.049737
3957.060000	21.667258	55.946055	55.075013	55.946055	9.581463	30.000000	0.000000	56.397505	58.135609	37.943051
3957.070000	21.749165	56.044619	55.168486	56.044619	9.637463	30.000000	0.000000	56.458347	58.295467	37.923654
3957.080000	21.831067	56.139533	55.258352	56.139533	9.692991	30.000000	0.000000	56.543526	58.467621	37.943051
3957.090000	22.037601	56.245399	55.353542	56.245399	9.810428	30.000000	0.000000	56.713884	58.713556	37.943051
3957.100000	22.123539	56.343963	55.446782	56.343963	9.868995	30.000000	0.000000	56.774727	58.799633	37.981846
3957.110000	22.267559	56.447395	55.542247	56.447395	9.956635	30.000000	0.000000	56.884243	58.934897	38.010942
3957.120000	22.372097	56.539876	55.628645	56.539876	10.023540	30.000000	0.000000	56.969422	59.057864	38.049737
3957.130000	22.437527	56.633573	55.717946	56.633573	10.071888	30.000000	0.000000	57.054601	59.168535	37.952750
3957.140000	22.506634	56.722402	55.802286	56.722402	10.121275	30.000000	0.000000	57.103275	59.291502	38.156422
3957.150000	22.576151	56.807582	55.883006	56.807582	10.170331	30.000000	0.000000	57.176286	59.439063	38.204916
3957.160000	22.651825	56.902496	55.973017	56.902496	10.224260	30.000000	0.000000	57.346644	59.537436	38.166121
3957.170000	22.892474	57.007144	56.065247	57.007144	10.360873	30.000000	0.000000	57.504834	59.697294	38.263108
3957.180000	22.951707	57.113010	56.166719	57.113010	10.409197	30.000000	0.000000	57.602182	59.869448	38.263108
3957.190000	23.037685	57.217659	56.265787	57.217659	10.470584	30.000000	0.000000	57.760372	60.017009	38.311601
3957.200000	23.146592	57.323524	56.365007	57.323524	10.543693	30.000000	0.000000	57.833382	60.189163	38.350396
3957.210000	23.324811	57.426956	56.458692	57.426956	10.650902	30.000000	0.000000	57.918562	60.361317	38.369793
3957.220000	23.453929	57.529171	56.553359	57.529171	10.733934	30.000000	0.000000	57.991572	60.508878	38.495876
3957.230000	23.453929	57.627735	56.650251	57.627735	10.752324	30.000000	0.000000	58.040246	60.705626	38.427985
3957.240000	23.671170	57.725083	56.736102	57.725083	10.878795	30.000000	0.000000	58.076752	60.767109	38.544369
3957.250000	23.743186	57.821214	56.827313	57.821214	10.932913	30.000000	0.000000	58.137594	60.988451	38.612260
3957.260000	23.850615	57.908827	56.908527	57.908827	11.003300	30.000000	0.000000	58.222773	61.099121	38.699548
3957.270000	23.850615	57.990355	56.988647	57.990355	11.018791	30.000000	0.000000	58.320121	61.222088	38.815933
3957.280000	24.065724	58.074318	57.061323	58.074318	11.142947	30.000000	0.000000	58.441805	61.345056	38.883823
3957.290000	24.108649	58.152196	57.135875	58.152196	11.179531	30.000000	0.000000	58.539153	61.480320	38.980810
3957.300000	24.220763	58.231291	57.208439	58.231291	11.251369	30.000000	0.000000	58.624332	61.627881	39.106893
3957.310000	24.284174	58.311603	57.284423	58.311603	11.298982	30.000000	0.000000	58.721680	61.738551	39.155386
3957.320000	24.346383	58.395565	57.364038	58.395565	11.346797	30.000000	0.000000	58.831196	61.910705	39.242675
3957.330000	24.438867	58.483178	57.445831	58.483178	11.410817	30.000000	0.000000	58.916375	62.070563	39.291168
3957.340000	24.534690	58.570791	57.527454	58.570791	11.476711	30.000000	0.000000	58.952880	62.230420	39.359059
3957.350000	24.627163	58.657187	57.608020	58.657187	11.540834	30.000000	0.000000	59.001554	62.390278	39.436648
3957.360000	24.719549	58.746017	57.690965	58.746017	11.605565	30.000000	0.000000	59.111070	62.525542	39.504539
3957.370000	24.917625	58.821461	57.755823	58.821461	11.722018	30.000000	0.000000	59.074565	62.722290	39.494840
3957.380000	25.054308	58.899339	57.825904	58.899339	11.807790	30.000000	0.000000	59.220586	62.857554	39.582128
3957.390000	25.054308	58.977217	57.902363	58.977217	11.823402	30.000000	0.000000	59.317934	62.968224	39.620923
3957.400000	25.288972	59.052662	57.965424	59.052662	11.959616	30.000000	0.000000	59.378776	63.115785	39.688814
3957.410000	25.411631	59.134190	58.039682	59.134190	12.039591	30.000000	0.000000	59.536966	63.251049	39.795499
3957.420000	25.497675	59.221803	58.121617	59.221803	12.102048	30.000000	0.000000	59.707325	63.386313	39.863390
3957.430000	25.497675	59.320368	58.218351	59.320368	12.122190	30.000000	0.000000	59.902020	63.533874	39.940980
3957.440000	25.563278	59.437185	58.329892	59.437185	12.180223	30.000000	0.000000	60.121052	63.669138	40.028268
3957.450000	25.708519	59.571038	58.454355	59.571038	12.283513	30.000000	0.000000	60.340084	63.865886	40.067063
3957.460000	25.708519	59.720710	58.601221	59.720710	12.314375	30.000000	0.000000	60.607791	64.050336	40.086460
3957.470000	25.860128	59.891068	58.761141	59.891068	12.429201	30.000000	0.000000	60.778149	64.296271	40.076761
3957.480000	25.973054	60.056559	58.918093	60.056559	12.523130	30.000000	0.000000	60.875497	64.517612	40.067063
3957.490000	26.119229	60.214749	59.066248	60.214749	12.633520	30.000000	0.000000	60.899834	64.984888	39.882788
3957.500000	26.396428	60.365638	59.200860	60.365638	12.812559	30.000000	0.000000	60.887665	65.193933	40.076761
3957.510000	26.499644	60.500708	59.328317	60.500708	12.896305	30.000000	0.000000	60.887665	65.193933	40.076761
3957.520000	26.549079	60.630911	59.453592	60.630911	12.950509	30.000000	0.000000	61.009350	65.390680	40.115556
3957.530000	26.614734	60.767197	59.584030	60.767197	13.014842	30.000000	0.000000	61.264887	65.661208	40.193145
3957.540000	26.802901	60.898617	59.703685	60.898617	13.144251	30.000000	0.000000	61.435246	65.784176	40.280434
3957.550000	26.915876	61.031253	59.828173	61.031253	13.233875	30.000000	0.000000	61.666446	65.857956	40.387119
3957.560000	26.985714	61.167540	59.958336	61.167540	13.301243	30.000000	0.000000	61.970658	65.968627	40.474407
3957.570000	27.081493	61.308694	60.091971	61.308694	13.383952	30.000000	0.000000	62.189690	66.103891	40.551997
3957.580000	27.114698	61.466884	60.245377	61.466884	13.436572	30.000000	0.000000	62.457396	66.288342	40.736272
3957.590000	27.194480	61.645760	60.416735	61.645760	13.519278	30.000000	0.000000	62.688597	66.472793	40.639285
3957.600000	27.286828	61.836805	60.599365	61.836805	13.611834	30.000000	0.000000	62.798113	66.706431	40.697477
3957.610000	27.286828	62.036367	60.794934	62.036367	13.655763	30.000000	0.000000	62.883292	67.013849	40.678080
3957.620000	27.750683	62.223762	60.955254	62.223762	13.953586	30.000000	0.000000	62.883292	67.272080	40.658682
3957.630000	27.928071	62.383169	61.102447	62.383169	14.087934	30.000000	0.000000	62.858955	67.554905	40.658682
3957.640000	28.014144	62.523106	61.235148	62.523106	14.167534	30.000000	0.000000	62.834618	67.813137	40.629586
3957.650000	28.127174	62.631405	61.335472	62.631405	14.255260	30.000000	0.000000	62.749439	68.022181	40.668381
3957.660000	28.278579	62.704416	61.399262	62.704416	14.356696	30.000000	0.000000	62.700765	68.157445	40.784765
3957.670000	28.385406	62.759174	61.447429	62.759174	14.429189	30.000000	0.000000	62.737271	68.268116	40.697477
3957.680000	28.444514	62.788378	61.473004	62.788378	14.469112	30.000000	0.000000	62.749439	68.329599	40.988437
3957.690000	28.464869	62.805414	61.488643	62.805414	14.484480	30.000000	0.000000	62.858955	68.427973	41.133918
3957.700000	28.481142	62.823667	61.505681	62.823667	14.497842	30.000000	0.000000	62.980640	68.415676	41.318193
3957.710000	28.508114	62.845570	61.525745	62.845570	14.518073	30.000000	0.000000	63.102324	68.477160	41.444275
3957.720000	28.550940	62.880858	61.558100	62.880858	14.550343	30.000000	0.000000	63.236177	68.538644	41.589756
3957.730000	28.607009	62.925882	61.599303	62.925882	14.592369	30.000000	0.000000	63.309188	68.637018	41.725537
3957.740000	28.769061	62.986724	61.650542	62.986724	14.697997	30.000000	0.000000	63.443041	68.784578	41.812825
3957.750000	28.829663	63.059735	61.718887	63.059735	14.749327	30.000000	0.000000	63.479547	68.956733	41.890415
3957.760000	28.971363	63.142480	61.792569	63.142480	14.849029	30.000000	0.000000	63.528220	69.165777	42.016498
3957.770000	29.097250	63.224009	61.865850	63.224009	14.939747	30.000000	0.000000	63.552557	69.399415	41.987402
3957.780000	29.245601	63.304321	61.936755	63.304321	15.043229	30.000000	0.000000	63.552557	69.534679	42.026196
3957.790000	29.337822	63.383416	62.009355	63.383416	15.114668	30.000000	0.000000	63.649905	69.891285	42.084388
3957.800000	29.570666	63.456427	62.068671	63.456427	15.265309	30.000000	0.000000	63.710747	70.075736	42.103786
3957.810000	29.666356	63.535522	62.141047	63.535522	15.339224	30.000000	0.000000	63.893274	70.297077	42.103786
3957.820000	29.739602	63.617050	62.216959	63.617050	15.401001	30.000000	0.000000	64.051464	70.506121	42.171677
3957.830000	29.838772	63.713181	62.305782	63.713181	15.481388	30.000000	0.000000	64.270496	70.665979	42.249266
3957.840000	29.928334	63.820263	62.405799	63.820263	15.559111	30.000000	0.000000	64.513866	70.838133	42.307458
3957.850000	30.001580	63.954117	62.532985	63.954117	15.633490	30.000000	0.000000	64.818077	71.034881	42.346253
3957.860000	30.100470	64.109873	62.689769	64.109873	15.687951	30.000000	0.000000	65.085783	71.231629	42.385048
3957.870000	30.164119	64.293617	62.872340	64.293617	15.743494	30.000000	0.000000	65.389995	71.489860	42.433541
3957.880000	30.246684	64.505348	63.083163	64.505348	15.809112	30.000000	0.000000	65.669869	71.686608	42.452938
3957.890000	30.379352	64.732898	63.311780	64.732898	15.887096	30.000000	0.000000	65.925407	71.981729	42.511131
3957.900000	30.664341	64.994520	63.580790	64.994520	15.999248	30.000000	0.000000	66.326966	72.596566	42.540227
3957.910000	30.664341	65.265876	63.846244	65.265876	16.066046	30.000000	0.000000	66.606841	72.916281	42.549925
3957.920000	30.845786	65.521414	64.104657	65.521414	16.159743	30.000000	0.000000	66.606841	72.916281	42.549925
3957.930000	31.004822	65.751398	64.337090	65.751398	16.243563	30.000000	0.000000	66.570335	73.248293	42.520829
3957.940000	31.267654	65.952178	64.545862	65.952178	16.338114	30.000000	0.000000	66.521661	73.777053	42.549925
3957.950000	31.331325	66.115235	64.708433	66.115235	16.389429	30.000000	0.000000	66.448651	73.973801	42.472336
3957.960000	31.417377	66.258823	64.853018	66.258823	16.439819	30.000000	0.000000	66.521661	74.084471	42.598419
3957.970000	31.417377	66.374423	64.966166	66.374423	16.468501	30.000000	0.000000	66.545998	74.219735	42.666309
3957.980000	31.597709	66.472988	65.071162	66.472988	16.524075	30.000000	0.000000	66.655515	74.207439	42.831187
3957.990000	31.622778	66.567902	65.165261	66.567902	16.552002	30.000000	0.000000	66.874547	74.244329	42.957270
3958.000000	31.643853	66.643346	65.240115	66.643346	16.574409	30.000000	0.000000	67.081411	74.281219	43.102750
3958.010000	31.670927	66.720007	65.316447	66.720007	16.598166	30.000000	0.000000	67.373454	74.330406	43.287025
3958.020000	31.740599	66.819789	65.417441	66.819789	16.635081	30.000000	0.000000	67.604654	74.428780	43.432505
3958.030000	31.817112	66.934172	65.533068	66.934172	16.676863	30.000000	0.000000	67.714171	74.588637	43.451903
3958.040000	31.882926	67.057074	65.656538	67.057074	16.718953	30.000000	0.000000	67.750676	74.822275	43.674973
3958.050000	31.992500	67.183626	65.785688	67.183626	16.769640	30.000000	0.000000	67.714171	75.080507	43.704069
3958.060000	32.155055	67.299226	65.906674	67.299226	16.826942	30.000000	0.000000	67.677665	75.424816	43.713767
3958.070000	32.569522	67.411176	66.036223	67.411176	16.927647	30.000000	0.000000	67.665497	75.756827	43.674973
3958.080000	32.726147	67.509740	66.140320	67.509740	16.979940	30.000000	0.000000	67.641160	76.064246	43.674973
3958.090000	32.875865	67.596137	66.232187	67.596137	17.028043	30.000000	0.000000	67.738508	76.359368	43.655575
3958.100000	32.976153	67.666714	66.306185	67.666714	17.063513	30.000000	0.000000	67.787181	76.580709	43.704069
3958.110000	33.098753	67.716604	66.361002	67.716604	17.097744	30.000000	0.000000	67.872361	76.765160	43.801055
3958.120000	33.162453	67.750676	66.397475	67.750676	17.117604	30.000000	0.000000	67.945371	76.949611	43.956234
3958.130000	33.205980	67.784748	66.432975	67.784748	17.133910	30.000000	0.000000	68.054888	77.146359	43.975632
3958.140000	33.275573	67.826120	66.476896	67.826120	17.156684	30.000000	0.000000	68.164404	77.207842	44.111413
3958.150000	33.334456	67.890613	66.542963	67.890613	17.183431	30.000000	0.000000	68.359099	77.441480	44.208400
3958.160000	33.432231	67.978226	66.633589	67.978226	17.222957	30.000000	0.000000	68.553794	77.589041	44.315086
3958.170000	33.432231	68.084092	66.737361	68.084092	17.249779	30.000000	0.000000	68.724153	77.785789	44.392675
3958.180000	33.591391	68.211861	66.870367	68.211861	17.310502	30.000000	0.000000	68.918848	78.314549	44.654540
3958.190000	33.704506	68.332328	66.993997	68.332328	17.361267	30.000000	0.000000	68.943185	78.572780	44.790321
3958.200000	33.959124	68.450362	67.122196	68.450362	17.436814	30.000000	0.000000	68.967522	78.941683	44.751526
3958.210000	33.959124	68.558662	67.228394	68.558662	17.464402	30.000000	0.000000	68.955354	79.298288	44.993994
3958.220000	34.332620	68.654793	67.341035	68.654793	17.555981	30.000000	0.000000	68.906680	79.630300	45.052186
3958.230000	34.504555	68.744839	67.437835	68.744839	17.609957	30.000000	0.000000	68.955354	79.888532	45.081282
3958.240000	34.504555	68.832452	67.523783	68.832452	17.632400	30.000000	0.000000	69.040533	80.171357	45.090980
3958.250000	34.643519	68.911547	67.608245	68.911547	17.677749	30.000000	0.000000	69.150049	80.392698	45.139474
3958.260000	34.701438	68.986992	67.685130	68.986992	17.707573	30.000000	0.000000	69.308239	80.614039	45.197666
3958.270000	34.787389	69.073388	67.774158	69.073388	17.745310	30.000000	0.000000	69.588114	80.847677	45.265557
3958.280000	34.858151	69.165868	67.868413	69.165868	17.781900	30.000000	0.000000	69.843651	81.044425	45.304351
3958.290000	34.914594	69.285119	67.988235	69.285119	17.822813	30.000000	0.000000	70.135694	81.204283	45.372242
3958.300000	35.013376	69.433574	68.138839	69.433574	17.878991	30.000000	0.000000	70.452074	81.450218	45.401338
3958.310000	35.089927	69.612451	68.318209	69.612451	17.939031	30.000000	0.000000	70.744118	81.720746	45.381941
3958.320000	35.195773	69.821748	68.528927	69.821748	18.012361	30.000000	0.000000	70.999655	82.028164	45.323749
3958.330000	35.432528	70.049298	68.764189	70.049298	18.114607	30.000000	0.000000	71.230856	82.384770	45.236461
3958.340000	35.432528	70.280499	68.991149	70.280499	18.174395	30.000000	0.000000	71.352541	82.741375	45.090980
3958.350000	35.826822	70.508049	69.234535	70.508049	18.306300	30.000000	0.000000	71.425551	83.097981	44.935801
3958.360000	35.924843	70.710046	69.437875	70.710046	18.376974	30.000000	0.000000	71.328204	83.442290	44.838815
3958.370000	36.037937	70.882838	69.613335	70.882838	18.442970	30.000000	0.000000	71.316035	83.700521	44.732129
3958.380000	36.136682	71.026426	69.759406	71.026426	18.498787	30.000000	0.000000	71.279530	83.946456	44.703033
3958.390000	36.307778	71.149327	69.888893	71.149327	18.562845	30.000000	0.000000	71.364709	84.081720	44.654540
3958.400000	36.322125	71.253976	69.992425	71.253976	18.592840	30.000000	0.000000	71.498562	84.180094	44.829116
3958.410000	36.338610	71.348890	70.086507	71.348890	18.620704	30.000000	0.000000	71.693258	84.253875	44.877609
3958.420000	36.358648	71.445021	70.181969	71.445021	18.649563	30.000000	0.000000	71.960964	84.303062	44.916404
3958.430000	36.380154	71.547236	70.283488	71.547236	18.680297	30.000000	0.000000	72.253007	84.413732	45.081282
3958.440000	36.413034	71.661620	70.397551	71.661620	18.716368	30.000000	0.000000	72.496376	84.524403	45.110378
3958.450000	36.440228	71.790605	70.525670	71.790605	18.755199	30.000000	0.000000	72.715408	84.745744	45.090980
3958.460000	36.511759	71.935410	70.671636	71.935410	18.806586	30.000000	0.000000	72.776251	84.954789	45.071583
3958.470000	36.854611	72.082648	70.834132	72.082648	18.910233	30.000000	0.000000	72.788419	85.249911	44.993994
3958.480000	37.109493	72.227453	70.989733	72.227453	18.996797	30.000000	0.000000	72.727577	85.594220	45.013391
3958.490000	37.282604	72.358873	71.127959	72.358873	19.064436	30.000000	0.000000	72.678903	85.926232	44.838815
3958.500000	37.422861	72.476907	71.251339	72.476907	19.122387	30.000000	0.000000	72.678903	86.147573	44.848513
3958.510000	37.513779	72.579122	71.356602	72.579122	19.166793	30.000000	0.000000	72.715408	86.491882	44.819417
3958.520000	37.608368	72.663084	71.444126	72.663084	19.207133	30.000000	0.000000	72.800588	86.700926	44.790321
3958.530000	37.644857	72.734878	71.516637	72.734878	19.233127	30.000000	0.000000	72.970946	86.848487	44.780622
3958.540000	37.702964	72.805455	71.589096	72.805455	19.262976	30.000000	0.000000	73.202147	87.057532	44.829116
3958.550000	37.783185	72.886984	71.673498	72.886984	19.300011	30.000000	0.000000	73.530696	87.389544	45.013391
3958.560000	37.826918	72.969729	71.757178	72.969729	19.330363	30.000000	0.000000	73.603706	87.561699	44.993994
3958.570000	37.902016	73.051258	71.841327	73.051258	19.366474	30.000000	0.000000	73.603706	87.561699	44.993994
3958.580000	38.005784	73.141305	71.935383	73.141305	19.410431	30.000000	0.000000	73.628043	87.795337	45.217063
3958.590000	38.142583	73.237436	72.037193	73.237436	19.462466	30.000000	0.000000	73.640212	88.311800	45.284954
3958.600000	38.295668	73.327482	72.133907	73.327482	19.516125	30.000000	0.000000	73.579369	88.619219	45.275255
3958.610000	38.457585	73.409011	72.222734	73.409011	19.569319	30.000000	0.000000	73.530696	88.926637	45.246159
3958.620000	38.457585	73.474721	72.287382	73.474721	19.586836	30.000000	0.000000	73.457685	89.184869	45.246159
3958.630000	38.679894	73.530696	72.354322	73.530696	19.645096	30.000000	0.000000	73.530696	89.467694	45.226762
3958.640000	38.783307	73.576936	72.405350	73.576936	19.677633	30.000000	0.000000	73.664549	89.664442	45.275255
3958.650000	38.874243	73.600056	72.432966	73.600056	19.701575	30.000000	0.000000	73.761896	89.861190	45.352845
3958.660000	38.874243	73.632911	72.465300	73.632911	19.710369	30.000000	0.000000	73.932255	90.045641	45.343146
3958.670000	38.937937	73.691319	72.526194	73.691319	19.738461	30.000000	0.000000	74.187793	90.168609	45.459530
3958.680000	39.071145	73.766764	72.607590	73.766764	19.784755	30.000000	0.000000	74.382488	90.414543	45.498325
3958.690000	39.174912	73.856810	72.701796	73.856810	19.829259	30.000000	0.000000	74.540678	90.672775	45.556517
3958.700000	39.224190	73.961459	72.807460	73.961459	19.867037	30.000000	0.000000	74.625857	90.931007	45.546818
3958.710000	39.435417	74.072192	72.927853	74.072192	19.938358	30.000000	0.000000	74.638026	91.213832	45.566216
3958.720000	39.522990	74.182925	73.041605	74.182925	19.985435	30.000000	0.000000	74.565015	91.545844	45.488626
3958.730000	39.670599	74.277839	73.143045	74.277839	20.040164	30.000000	0.000000	74.479836	91.828669	45.469229
3958.740000	39.814498	74.356934	73.228729	74.356934	20.089972	30.000000	0.000000	74.455499	92.148385	45.449832
3958.750000	40.122449	74.421427	73.308955	74.421427	20.168415	30.000000	0.000000	74.406825	92.394320	45.246159
3958.760000	40.220775	74.470101	73.362244	74.470101	20.201112	30.000000	0.000000	74.418993	92.591068	45.449832
3958.770000	40.257184	74.495655	73.389397	74.495655	20.215272	30.000000	0.000000	74.443330	92.750925	45.478928
3958.780000	40.298878	74.516341	73.412044	74.516341	20.229164	30.000000	0.000000	74.589352	92.898486	45.585613
3958.790000	40.360434	74.540678	73.439369	74.540678	20.248001	30.000000	0.000000	74.784047	93.033751	45.692299
3958.800000	40.409665	74.573533	73.474419	74.573533	20.266712	30.000000	0.000000	74.954406	93.144421	45.740792
3958.810000	40.409665	74.620990	73.521177	74.620990	20.279610	30.000000	0.000000	75.112596	93.304279	45.847478
3958.820000	40.580767	74.698868	73.607242	74.698868	20.334857	30.000000	0.000000	75.343797	93.513324	45.886272
3958.830000	40.681234	74.799866	73.712255	74.799866	20.382399	30.000000	0.000000	75.489818	93.783852	45.857176
3958.840000	40.801543	74.919117	73.836360	74.919117	20.438948	30.000000	0.000000	75.648008	94.078974	45.895971
3958.850000	40.899906	75.054187	73.974876	75.054187	20.495504	30.000000	0.000000	75.757525	94.423283	45.740792
3958.860000	41.114865	75.197775	74.128223	75.197775	20.577886	30.000000	0.000000	75.854872	94.706109	45.624408
3958.870000	41.498837	75.341363	74.290948	75.341363	20.694511	30.000000	0.000000	75.879209	95.185682	45.537120
3958.880000	41.633596	75.463048	74.418388	75.463048	20.755140	30.000000	0.000000	75.806198	95.554584	45.401338
3958.890000	41.710056	75.550661	74.509022	75.550661	20.794696	30.000000	0.000000	75.660177	95.874300	45.304351
3958.900000	41.781183	75.618804	74.580169	75.618804	20.827849	30.000000	0.000000	75.635840	96.132531	45.255858
3958.910000	41.855514	75.662610	74.627497	75.662610	20.854972	30.000000	0.000000	75.550661	96.304686	45.255858
3958.920000	41.910069	75.686947	74.654530	75.686947	20.872737	30.000000	0.000000	75.587166	96.415357	45.304351
3958.930000	41.941100	75.706417	74.675457	75.706417	20.884398	30.000000	0.000000	75.684514	96.501434	45.372242
3958.940000	41.994022	75.722236	74.694000	75.722236	20.899495	30.000000	0.000000	75.806198	96.526028	45.469229
3958.950000	42.008479	75.739272	74.711608	75.739272	20.907130	30.000000	0.000000	75.927883	96.612105	45.740792
3958.960000	42.053886	75.749007	74.723735	75.749007	20.919032	30.000000	0.000000	75.952220	96.735072	45.857176
3958.970000	42.128775	75.756308	74.735100	75.756308	20.936250	30.000000	0.000000	75.952220	96.870337	45.925067
3958.980000	42.199912	75.770910	74.753462	75.770910	20.954731	30.000000	0.000000	75.952220	96.870337	45.925067
3958.990000	42.347486	75.796464	74.786886	75.796464	20.991787	30.000000	0.000000	75.915715	97.300723	45.925067
3959.000000	42.538921	75.824451	74.825165	75.824451	21.038473	30.000000	0.000000	75.915715	97.583548	45.837779
3959.010000	42.734150	75.856089	74.867272	75.856089	21.086998	30.000000	0.000000	75.867041	97.841780	45.818382
3959.020000	42.734150	75.879209	74.890090	75.879209	21.093425	30.000000	0.000000	75.818367	98.149199	45.857176
3959.030000	42.832598	75.885293	74.901589	75.885293	21.115177	30.000000	0.000000	75.745356	98.382837	45.653504
3959.040000	43.176412	75.874342	74.909977	75.874342	21.182221	30.000000	0.000000	75.696682	98.591882	45.711696
3959.050000	43.265174	75.842704	74.883698	75.842704	21.191489	30.000000	0.000000	75.611503	98.825520	45.721395
3959.060000	43.265174	75.804982	74.846453	75.804982	21.180949	30.000000	0.000000	75.574998	98.948488	45.789286
3959.070000	43.397812	75.773344	74.822619	75.773344	21.199140	30.000000	0.000000	75.635840	99.071455	45.857176
3959.080000	43.441692	75.747790	74.799835	75.747790	21.200932	30.000000	0.000000	75.696682	99.145236	45.925067
3959.090000	43.485573	75.733188	74.787864	75.733188	21.205787	30.000000	0.000000	75.769693	99.243610	46.031753
3959.100000	43.529455	75.724670	74.781902	75.724670	21.212344	30.000000	0.000000	75.830535	99.354280	46.099643
3959.110000	43.644516	75.723453	74.787123	75.723453	21.235455	30.000000	0.000000	75.854872	99.514138	46.060849
3959.120000	43.717067	75.736838	74.804395	75.736838	21.254003	30.000000	0.000000	75.952220	99.661699	46.235425
3959.130000	43.832126	75.761175	74.834862	75.761175	21.284309	30.000000	0.000000	75.988725	99.944525	46.235425
3959.140000	43.987294	75.795247	74.877196	75.795247	21.325568	30.000000	0.000000	76.037399	100.141273	46.225726
3959.150000	44.162133	75.836620	74.927856	75.836620	21.372950	30.000000	0.000000	76.025231	100.436395	46.225726
3959.160000	44.351457	75.871908	74.973333	75.871908	21.421637	30.000000	0.000000	75.927883	100.731517	46.177233
3959.170000	44.455500	75.887727	74.994800	75.887727	21.447408	30.000000	0.000000	75.794030	101.014342	46.167534
3959.180000	44.586435	75.905980	75.020185	75.905980	21.479394	30.000000	0.000000	75.879209	101.272574	46.157836
3959.190000	44.717359	75.915715	75.037157	75.915715	21.508988	30.000000	0.000000	75.867041	101.481619	46.128740
3959.200000	44.916129	75.926666	75.059149	75.926666	21.552864	30.000000	0.000000	75.940051	101.666070	46.167534
3959.210000	44.937847	75.946136	75.079617	75.946136	21.562848	30.000000	0.000000	76.049568	101.838225	46.235425
3959.220000	44.960035	75.971689	75.106127	75.971689	21.574659	30.000000	0.000000	76.207758	101.924302	46.274220
3959.230000	44.987335	76.031315	75.166610	76.031315	21.597203	30.000000	0.000000	76.584980	102.293205	46.516687
3959.240000	45.080253	76.100675	75.240417	76.100675	21.636021	30.000000	0.000000	76.731002	102.514546	46.603975
3959.250000	45.124159	76.171252	75.312673	76.171252	21.665130	30.000000	0.000000	76.731002	102.514546	46.603975
3959.260000	45.215874	76.269817	75.415308	76.269817	21.712083	30.000000	0.000000	76.913529	102.797372	46.671866
3959.270000	45.330996	76.390285	75.540943	76.390285	21.770169	30.000000	0.000000	76.998708	103.129384	46.681565
3959.280000	45.712176	76.498584	75.669661	76.498584	21.879981	30.000000	0.000000	76.962203	103.916376	46.671866
3959.290000	45.918096	76.591064	75.772844	76.591064	21.949171	30.000000	0.000000	76.791844	104.309873	46.468194
3959.300000	46.061763	76.657991	75.847234	76.657991	21.998211	30.000000	0.000000	76.609317	104.654182	46.545783
3959.310000	46.227688	76.696930	75.895216	76.696930	22.043905	30.000000	0.000000	76.438959	104.986194	46.410001
3959.320000	46.317372	76.709098	75.912370	76.709098	22.066071	30.000000	0.000000	76.329442	105.170646	46.342111
3959.330000	46.428316	76.673810	75.883772	76.673810	22.079010	30.000000	0.000000	76.232095	105.342800	46.274220
3959.340000	46.428316	76.620269	75.830783	76.620269	22.063592	30.000000	0.000000	76.195589	105.379690	46.283919
3959.350000	46.437151	76.571595	75.783114	76.571595	22.051413	30.000000	0.000000	76.244263	105.367394	46.313015
3959.360000	46.455493	76.515620	75.728759	76.515620	22.039104	30.000000	0.000000	76.353779	105.293613	46.410001
3959.370000	46.464329	76.470597	75.684701	76.470597	22.027970	30.000000	0.000000	76.548475	105.244426	46.506988
3959.380000	46.470013	76.446260	75.660937	76.446260	22.022139	30.000000	0.000000	76.718833	105.256723	46.642770
3959.390000	46.478849	76.451127	75.666257	76.451127	22.025376	30.000000	0.000000	76.840518	105.330503	46.642770
3959.400000	46.585156	76.473030	75.693982	76.473030	22.053764	30.000000	0.000000	76.828349	105.342800	46.623372
3959.410000	46.661378	76.509536	75.734454	76.509536	22.080134	30.000000	0.000000	76.804013	105.601032	46.574879
3959.420000	46.807790	76.549692	75.782545	76.549692	22.122179	30.000000	0.000000	76.731002	105.859264	46.477892
3959.430000	47.072253	76.592281	75.839793	76.592281	22.189565	30.000000	0.000000	76.657991	106.129793	46.371207
3959.440000	47.249839	76.628787	75.886081	76.628787	22.237169	30.000000	0.000000	76.560643	106.375728	46.245124
3959.450000	47.415608	76.645822	75.912425	76.645822	22.276701	30.000000	0.000000	76.414622	106.584773	46.177233
3959.460000	47.536510	76.648256	75.921748	76.648256	22.302648	30.000000	0.000000	76.378116	106.793818	46.089945
3959.470000	47.619530	76.638521	75.916853	76.638521	22.317149	30.000000	0.000000	76.451127	106.879895	46.089945
3959.480000	47.633134	76.627570	75.906783	76.627570	22.316801	30.000000	0.000000	76.609317	106.978269	46.128740
3959.490000	47.660442	76.625136	75.905934	76.625136	22.321794	30.000000	0.000000	76.816181	107.052050	46.274220
3959.500000	47.679896	76.644606	75.926333	76.644606	22.331529	30.000000	0.000000	77.023045	107.113533	46.390604
3959.510000	47.738349	76.692063	75.976692	76.692063	22.357574	30.000000	0.000000	77.278583	107.199611	46.506988
3959.520000	47.782276	76.767507	76.053950	76.767507	22.388760	30.000000	0.000000	77.485447	107.396359	46.642770
3959.530000	47.845648	76.853903	76.143180	76.853903	22.427236	30.000000	0.000000	77.521952	107.679184	46.749455
3959.540000	47.975330	76.956118	76.251904	76.956118	22.484280	30.000000	0.000000	77.582794	107.962010	46.759154
3959.550000	48.238731	77.058333	76.368354	77.058333	22.569532	30.000000	0.000000	77.436773	108.416990	46.720359
3959.560000	48.800066	77.144730	76.486382	77.144730	22.713153	30.000000	0.000000	77.242077	108.810486	46.633071
3959.570000	48.800066	77.203138	76.544292	77.203138	22.730350	30.000000	0.000000	77.035213	109.228576	46.584578
3959.580000	48.952445	77.233559	76.583270	77.233559	22.771496	30.000000	0.000000	76.913529	109.548292	46.400303
3959.590000	49.007059	77.238427	76.591257	77.238427	22.784473	30.000000	0.000000	76.864855	109.757337	46.313015
3959.600000	49.074445	77.239644	76.596365	77.239644	22.799075	30.000000	0.000000	77.035213	110.040162	46.410001
3959.610000	49.083132	77.238427	76.595661	77.238427	22.800553	30.000000	0.000000	77.266414	110.089349	46.555482
3959.620000	49.088977	77.216524	76.574278	77.216524	22.795322	30.000000	0.000000	77.266414	110.089349	46.555482
3959.630000	49.088977	77.209222	76.567038	77.209222	22.793167	30.000000	0.000000	77.448941	110.175427	46.662167
3959.640000	49.147441	77.222608	76.583697	77.222608	22.809476	30.000000	0.000000	77.716647	110.421362	46.933730
3959.650000	49.168895	77.244511	76.606661	77.244511	22.820482	30.000000	0.000000	77.655805	110.642704	46.827045
3959.660000	49.218676	77.277366	76.642129	77.277366	22.840721	30.000000	0.000000	77.570626	110.974716	46.972525
3959.670000	49.361141	77.319955	76.692631	77.319955	22.883477	30.000000	0.000000	77.461110	111.319026	46.856141
3959.680000	49.781887	77.364979	76.761726	77.364979	22.986024	30.000000	0.000000	77.363762	111.589554	46.739757
3959.690000	49.897041	77.408785	76.811888	77.408785	23.023493	30.000000	0.000000	77.302920	111.860083	46.652469
3959.700000	50.045397	77.434339	76.845880	77.434339	23.062620	30.000000	0.000000	77.290751	112.142909	46.594276
3959.710000	50.135928	77.435556	76.852359	77.435556	23.082228	30.000000	0.000000	77.278583	112.290470	46.536084
3959.720000	50.240364	77.442857	76.865688	77.442857	23.106615	30.000000	0.000000	77.339425	112.438031	46.526386
3959.730000	50.308891	77.431905	76.858810	77.431905	23.117923	30.000000	0.000000	77.339425	112.474921	46.603975
3959.740000	50.336800	77.405135	76.833863	77.405135	23.115865	30.000000	0.000000	77.448941	112.536405	46.700962
3959.750000	50.344809	77.399050	76.828290	77.399050	23.115751	30.000000	0.000000	77.594963	112.585592	46.778551
3959.760000	50.384590	77.418520	76.849934	77.418520	23.130028	30.000000	0.000000	77.765321	112.524108	46.962826
3959.770000	50.384590	77.465977	76.897042	77.465977	23.144207	30.000000	0.000000	77.935680	112.708560	46.943429
3959.780000	50.426432	77.530470	76.963503	77.530470	23.172390	30.000000	0.000000	78.008691	112.831527	46.972525
3959.790000	50.512195	77.599830	77.037366	77.599830	23.211412	30.000000	0.000000	77.996522	113.040572	46.856141
3959.800000	50.900950	77.670407	77.130178	77.670407	23.315575	30.000000	0.000000	77.996522	113.298804	46.817346
3959.810000	50.900950	77.733683	77.193014	77.733683	23.334569	30.000000	0.000000	77.911343	113.544740	46.671866
3959.820000	51.237757	77.786008	77.264733	77.786008	23.422417	30.000000	0.000000	77.862669	113.852159	46.565180
3959.830000	51.381971	77.835898	77.322761	77.835898	23.468371	30.000000	0.000000	77.838332	114.061204	46.526386
3959.840000	51.488278	77.882139	77.374947	77.882139	23.505137	30.000000	0.000000	77.911343	114.307139	46.390604
3959.850000	51.546745	77.927162	77.423118	77.927162	23.531288	30.000000	0.000000	78.045196	114.454700	46.487591
3959.860000	51.593255	77.974619	77.473007	77.974619	23.555620	30.000000	0.000000	78.239892	114.565371	46.429399
3959.870000	51.620542	78.029377	77.529022	78.029377	23.578035	30.000000	0.000000	78.483261	114.737526	46.506988
3959.880000	51.670461	78.102388	77.604510	78.102388	23.610851	30.000000	0.000000	78.738799	114.848197	46.584578
3959.890000	51.733114	78.194868	77.700103	78.194868	23.652324	30.000000	0.000000	78.921326	115.008055	46.574879
3959.900000	51.823062	78.315336	77.825132	78.315336	23.708202	30.000000	0.000000	79.201200	115.217100	46.613674
3959.910000	51.975684	78.460141	77.978084	78.460141	23.785096	30.000000	0.000000	79.359390	115.524519	46.623372
3959.920000	51.975684	78.609813	78.126837	78.609813	23.830469	30.000000	0.000000	79.359390	115.868828	46.448796
3959.930000	52.408831	78.750967	78.292938	78.750967	23.967510	30.000000	0.000000	79.249874	116.237731	46.468194
3959.940000	52.507306	78.870218	78.417377	78.870218	24.025281	30.000000	0.000000	79.103853	116.582041	46.235425
3959.950000	52.633053	78.962698	78.516850	78.962698	24.080919	30.000000	0.000000	78.970000	116.852570	46.186932
3959.960000	52.720963	79.028408	78.587454	79.028408	24.120183	30.000000	0.000000	78.896989	117.147692	46.196630
3959.970000	52.842119	79.064914	78.631018	79.064914	24.157840	30.000000	0.000000	78.848315	117.332144	46.186932
3959.980000	52.864822	79.080733	78.648111	79.080733	24.167644	30.000000	0.000000	78.896989	117.405924	46.283919
3959.990000	52.883950	79.085600	78.654099	79.085600	24.173321	30.000000	0.000000	78.970000	117.430518	46.429399
3960.000000	52.915125	79.069781	78.640236	79.069781	24.175311	30.000000	0.000000	79.043010	117.504299	46.584578
3960.010000	52.965111	79.036926	78.610556	79.036926	24.176207	30.000000	0.000000	79.030842	117.651860	46.856141
3960.020000	53.023566	79.004071	78.581382	79.004071	24.178949	30.000000	0.000000	79.030842	117.651860	46.856141
3960.030000	53.165904	78.978517	78.564496	78.978517	24.202276	30.000000	0.000000	78.994336	117.836311	46.991922
3960.040000	53.385229	78.965132	78.564331	78.965132	24.246187	30.000000	0.000000	78.970000	118.094543	47.030717
3960.050000	53.560944	78.959048	78.568818	78.959048	24.282805	30.000000	0.000000	78.909157	118.561821	46.972525
3960.060000	53.560944	78.952964	78.562764	78.952964	24.280934	30.000000	0.000000	78.836146	118.820053	46.953128
3960.070000	53.694828	78.934711	78.552634	78.934711	24.304649	30.000000	0.000000	78.665788	119.090582	46.875538
3960.080000	53.893294	78.914025	78.543959	78.914025	24.341767	30.000000	0.000000	78.690125	119.311924	46.865840
3960.090000	54.069002	78.882387	78.523016	78.882387	24.370516	30.000000	0.000000	78.653619	119.459485	46.894936
3960.100000	54.069002	78.847098	78.487888	78.847098	24.359614	30.000000	0.000000	78.690125	119.607046	46.953128
3960.110000	54.171714	78.825195	78.472248	78.825195	24.375350	30.000000	0.000000	78.811809	119.717717	47.098608
3960.120000	54.194491	78.816677	78.465135	78.816677	24.377707	30.000000	0.000000	78.945663	119.791498	47.108307
3960.130000	54.236311	78.817894	78.468856	78.817894	24.387247	30.000000	0.000000	79.006505	119.889872	47.234390
3960.140000	54.280186	78.827628	78.481182	78.827628	24.399876	30.000000	0.000000	79.067347	120.074323	47.273184
3960.150000	54.330232	78.845881	78.502360	78.845881	24.416500	30.000000	0.000000	79.091684	120.209588	47.341075
3960.160000	54.401365	78.867784	78.528442	78.867784	24.438887	30.000000	0.000000	79.055179	120.430930	47.331376
3960.170000	54.616468	78.899422	78.572878	78.899422	24.495919	30.000000	0.000000	78.982168	120.639975	47.379870
3960.180000	54.808765	78.928627	78.613537	78.928627	24.547249	30.000000	0.000000	78.982168	120.861317	47.360473
3960.190000	54.976015	78.963915	78.658762	78.963915	24.595018	30.000000	0.000000	79.006505	121.119549	47.379870
3960.200000	55.043216	79.000421	78.699179	79.000421	24.621185	30.000000	0.000000	79.055179	121.316297	47.224691
3960.210000	55.204345	79.033276	78.741633	79.033276	24.666929	30.000000	0.000000	79.140358	121.549936	47.379870
3960.220000	55.243783	79.063697	78.774323	79.063697	24.685120	30.000000	0.000000	79.249874	121.771278	47.341075
3960.230000	55.308426	79.107503	78.821876	79.107503	24.713061	30.000000	0.000000	79.444570	121.943433	47.341075
3960.240000	55.385801	79.162261	78.881117	79.162261	24.747256	30.000000	0.000000	79.614928	122.103291	47.292582
3960.250000	55.579926	79.234055	78.964414	79.234055	24.812632	30.000000	0.000000	79.809624	122.312336	47.302280
3960.260000	55.651013	79.324102	79.058467	79.324102	24.856575	30.000000	0.000000	79.955645	122.558271	47.224691
3960.270000	55.749331	79.431184	79.171165	79.431184	24.911942	30.000000	0.000000	80.052993	122.791910	47.214992
3960.280000	55.853905	79.534616	79.280623	79.534616	24.967619	30.000000	0.000000	80.016488	123.013252	47.234390
3960.290000	56.079689	79.623446	79.382932	79.623446	25.045758	30.000000	0.000000	79.894803	123.259187	47.302280
3960.300000	56.140117	79.695240	79.458198	79.695240	25.081808	30.000000	0.000000	79.773118	123.529716	47.176197
3960.310000	56.225792	79.749998	79.518028	79.749998	25.118153	30.000000	0.000000	79.687939	123.640387	47.282883
3960.320000	56.303147	79.788937	79.561583	79.788937	25.147686	30.000000	0.000000	79.639265	123.874026	47.273184
3960.330000	56.447632	79.812057	79.593477	79.812057	25.187248	30.000000	0.000000	79.675771	123.960103	47.350774
3960.340000	56.485582	79.825443	79.609148	79.825443	25.199953	30.000000	0.000000	79.748781	124.046181	47.467158
3960.350000	56.506505	79.836394	79.621351	79.836394	25.208087	30.000000	0.000000	79.919140	124.095368	47.573844
3960.360000	56.548386	79.843695	79.631197	79.843695	25.219756	30.000000	0.000000	80.028656	124.218336	47.729023
3960.370000	56.611084	79.857081	79.648387	79.857081	25.238006	30.000000	0.000000	80.186846	124.341303	47.806612
3960.380000	56.661216	79.883851	79.678160	79.883851	25.257684	30.000000	0.000000	80.284194	124.488865	47.845407
3960.390000	56.809235	79.933742	79.737002	79.933742	25.306610	30.000000	0.000000	80.393710	124.783987	47.738721
3960.400000	57.007775	80.000669	79.815960	80.000669	25.372327	30.000000	0.000000	80.442384	125.079110	47.777516
3960.410000	57.240003	80.084631	79.914017	80.084631	25.451128	30.000000	0.000000	80.527563	125.755432	47.505953
3960.420000	57.518470	80.177111	80.023469	80.177111	25.543201	30.000000	0.000000	80.564069	126.075149	47.428363
3960.430000	57.646002	80.267158	80.121219	80.267158	25.600645	30.000000	0.000000	80.576237	126.370271	47.418665
3960.440000	57.777475	80.359638	80.221663	80.359638	25.659833	30.000000	0.000000	80.673585	126.640800	47.408966
3960.450000	57.889923	80.439950	80.308802	80.439950	25.710908	30.000000	0.000000	80.722259	126.923626	47.438062
3960.460000	57.906502	80.514178	80.383937	80.514178	25.738387	30.000000	0.000000	80.770933	127.144968	47.496254
3960.470000	57.969064	80.579888	80.453423	80.579888	25.773571	30.000000	0.000000	80.843943	127.317123	47.583542
3960.480000	57.996523	80.646814	80.521951	80.646814	25.801206	30.000000	0.000000	80.953460	127.501575	47.457459
3960.490000	58.117672	80.713741	80.596309	80.713741	25.850128	30.000000	0.000000	81.062976	127.636839	47.476857
3960.500000	58.176280	80.787969	80.674078	80.787969	25.887225	30.000000	0.000000	81.184661	127.821291	47.447761
3960.510000	58.274439	80.862196	80.754320	80.862196	25.933353	30.000000	0.000000	81.269840	127.956556	47.486555
3960.520000	58.329125	80.943725	80.839153	80.943725	25.971963	30.000000	0.000000	81.379356	128.128710	47.428363
3960.530000	58.526059	81.031338	80.938963	81.031338	26.045022	30.000000	0.000000	81.452367	128.313162	47.476857
3960.540000	58.639088	81.106782	81.021397	81.106782	26.095105	30.000000	0.000000	81.428030	128.485317	47.389569
3960.550000	58.747593	81.167625	81.088975	81.167625	26.139506	30.000000	0.000000	81.330682	128.718956	47.399267
3960.560000	58.747593	81.211431	81.132739	81.211431	26.153614	30.000000	0.000000	81.208998	128.878814	47.263486
3960.570000	58.940159	81.229684	81.163057	81.229684	26.203606	30.000000	0.000000	81.026471	128.952595	47.399267
3960.580000	58.983904	81.226033	81.162155	81.226033	26.212453	30.000000	0.000000	80.916954	129.137046	47.331376
3960.590000	59.030169	81.205347	81.144388	81.205347	26.216379	30.000000	0.000000	80.856112	129.112453	47.408966
3960.600000	59.096937	81.174926	81.118179	81.174926	26.221853	30.000000	0.000000	80.880449	129.149343	47.505953
3960.610000	59.147142	81.143288	81.089712	81.143288	26.223132	30.000000	0.000000	80.953460	129.149343	47.709625
3960.620000	59.211899	81.109216	81.059724	81.109216	26.226950	30.000000	0.000000	81.038639	129.087859	47.835708
3960.630000	59.255635	81.082445	81.035713	81.082445	26.228307	30.000000	0.000000	81.184661	129.137046	47.971490
3960.640000	59.320395	81.069060	81.026396	81.069060	26.238803	30.000000	0.000000	81.294177	129.260014	48.107271
3960.650000	59.441934	81.075144	81.040101	81.075144	26.268609	30.000000	0.000000	81.391525	129.469059	48.194559
3960.660000	59.638495	81.090963	81.068251	81.090963	26.318784	30.000000	0.000000	81.367188	129.727292	48.049079
3960.670000	59.806344	81.126252	81.114077	81.126252	26.368745	30.000000	0.000000	81.379356	129.936337	48.107271
3960.680000	60.145551	81.171275	81.180436	81.171275	26.461304	30.000000	0.000000	81.367188	130.391318	48.000586
3960.690000	60.285778	81.227250	81.245253	81.227250	26.511812	30.000000	0.000000	81.415861	131.116828	47.922996
3960.700000	60.427933	81.279575	81.306556	81.279575	26.561629	30.000000	0.000000	81.403693	131.424247	47.922996
3960.710000	60.544954	81.316080	81.350461	81.316080	26.600532	30.000000	0.000000	81.318514	131.719370	47.903599
3960.720000	60.630321	81.335550	81.375331	81.335550	26.626589	30.000000	0.000000	81.233334	131.965306	47.990887
3960.730000	60.693156	81.327032	81.370778	81.327032	26.638294	30.000000	0.000000	81.099481	132.186648	48.000586
3960.740000	60.743979	81.294177	81.341116	81.294177	26.639253	30.000000	0.000000	80.965628	132.285022	48.078175
3960.750000	60.762552	81.249153	81.297239	81.249153	26.628780	30.000000	0.000000	80.941291	132.432584	48.155765
3960.760000	60.794224	81.208998	81.259058	81.208998	26.622917	30.000000	0.000000	80.965628	132.432584	48.146066
3960.770000	60.860414	81.174926	81.229141	81.174926	26.626993	30.000000	0.000000	81.038639	132.457177	48.213957
3960.780000	60.894117	81.156673	81.213002	81.156673	26.628769	30.000000	0.000000	81.184661	132.444880	48.320642
3960.790000	60.910656	81.132336	81.189691	81.132336	26.624592	30.000000	0.000000	81.172492	132.432584	48.417629
3960.800000	60.952329	81.126252	81.186231	81.126252	26.632192	30.000000	0.000000	81.342851	132.530958	48.485520
3960.810000	61.038275	81.122601	81.187999	81.122601	26.650788	30.000000	0.000000	81.282008	132.604739	48.504917
3960.820000	61.264435	81.118951	81.198618	81.118951	26.701700	30.000000	0.000000	81.196829	132.752300	48.582507
3960.830000	61.494550	81.122601	81.216806	81.122601	26.755965	30.000000	0.000000	81.135987	132.961345	48.504917
3960.840000	61.698270	81.135987	81.243083	81.135987	26.807395	30.000000	0.000000	81.099481	133.084313	48.388533
3960.850000	61.698270	81.153023	81.260142	81.153023	26.813023	30.000000	0.000000	81.111650	133.305655	48.301245
3960.860000	61.882822	81.165191	81.284003	81.165191	26.859677	30.000000	0.000000	81.087313	133.465513	48.272149
3960.870000	61.960190	81.168842	81.292556	81.168842	26.878766	30.000000	0.000000	81.075144	133.588481	48.243053
3960.880000	62.010452	81.163974	81.290863	81.163974	26.888771	30.000000	0.000000	81.135987	133.699152	48.233354
3960.890000	62.060715	81.159107	81.289170	81.159107	26.898778	30.000000	0.000000	81.123818	133.772933	48.281848
3960.900000	62.118866	81.149372	81.283102	81.149372	26.908995	30.000000	0.000000	81.245503	133.822120	48.398232
3960.910000	62.142028	81.154239	81.289444	81.154239	26.915964	30.000000	0.000000	81.330682	133.871307	48.563109
3960.920000	62.196244	81.178576	81.317256	81.178576	26.936577	30.000000	0.000000	81.440198	134.006572	48.543712
3960.930000	62.277560	81.219949	81.363855	81.219949	26.969129	30.000000	0.000000	81.549715	134.117243	48.863769
3960.940000	62.362797	81.273490	81.422900	81.273490	27.006656	30.000000	0.000000	81.634894	134.313992	48.912262
3960.950000	62.559902	81.335550	81.497597	81.335550	27.073002	30.000000	0.000000	81.732242	134.559927	48.970454
3960.960000	62.895199	81.406127	81.589654	81.406127	27.174407	30.000000	0.000000	81.793084	134.916534	48.989852
3960.970000	63.059397	81.477921	81.672077	81.477921	27.236590	30.000000	0.000000	81.793084	135.260844	48.999550
3960.980000	63.243993	81.546064	81.752166	81.546064	27.302395	30.000000	0.000000	81.817421	135.605154	48.854070
3960.990000	63.388992	81.619075	81.834631	81.619075	27.360683	30.000000	0.000000	81.853926	135.998651	48.805577
3961.000000	63.459611	81.684785	81.905034	81.684785	27.399212	30.000000	0.000000	81.902600	136.293774	48.747384
3961.010000	63.543672	81.746844	81.972646	81.746844	27.439691	30.000000	0.000000	81.951274	136.625787	48.844371
3961.020000	63.613218	81.814987	82.045437	81.814987	27.478849	30.000000	0.000000	82.121633	137.043878	48.815275
3961.030000	63.648980	81.891649	82.124611	81.891649	27.512980	30.000000	0.000000	82.316328	137.265220	48.902563
3961.040000	63.699260	81.959792	82.196179	81.959792	27.547672	30.000000	0.000000	82.316328	137.265220	48.902563
3961.050000	63.699260	82.032803	82.269401	82.032803	27.572211	30.000000	0.000000	82.462350	137.474266	48.989852
3961.060000	63.826872	82.128934	82.374029	82.128934	27.634535	30.000000	0.000000	82.754393	137.867763	48.941358
3961.070000	63.971919	82.225065	82.479805	82.225065	27.701049	30.000000	0.000000	82.754393	138.064511	48.795878
3961.080000	64.155576	82.333364	82.600311	82.333364	27.780877	30.000000	0.000000	82.900415	138.273557	48.631000
3961.090000	64.273602	82.448964	82.723929	82.448964	27.847789	30.000000	0.000000	83.009931	138.458009	48.514616
3961.100000	64.452606	82.562131	82.849086	82.562131	27.928414	30.000000	0.000000	83.034268	138.617867	48.155765
3961.110000	64.452606	82.671647	82.958983	82.671647	27.965460	30.000000	0.000000	83.046436	138.728538	48.291546
3961.120000	64.533868	82.758044	83.050966	82.758044	28.013987	30.000000	0.000000	82.985594	138.802319	48.223655
3961.130000	64.599685	82.822536	83.119974	82.822536	28.051468	30.000000	0.000000	82.961257	138.802319	48.252752
3961.140000	64.607406	82.884596	83.182759	82.884596	28.074325	30.000000	0.000000	82.936920	138.826912	48.330341
3961.150000	64.634429	82.933270	83.233370	82.933270	28.097246	30.000000	0.000000	82.949089	138.814616	48.398232
3961.160000	64.657689	82.960040	83.261755	82.960040	28.111857	30.000000	0.000000	83.022099	138.790022	48.485520
3961.170000	64.693457	82.998979	83.303171	82.998979	28.133578	30.000000	0.000000	83.143784	138.765428	48.524315
3961.180000	64.806527	83.026967	83.338647	83.026967	28.170031	30.000000	0.000000	83.180289	138.826912	48.572808
3961.190000	64.857861	83.035485	83.350551	83.035485	28.185169	30.000000	0.000000	83.095110	138.900693	48.601904
3961.200000	64.972730	83.035485	83.358059	83.035485	28.212581	30.000000	0.000000	83.034268	139.048255	48.504917
3961.210000	65.113885	83.028184	83.359959	83.028184	28.243797	30.000000	0.000000	82.973425	139.085145	48.514616
3961.220000	65.446539	83.024533	83.378058	83.024533	28.322021	30.000000	0.000000	82.949089	139.306487	48.417629
3961.230000	65.523821	83.024533	83.383118	83.024533	28.340494	30.000000	0.000000	82.961257	139.441752	48.475821
3961.240000	65.597399	83.030617	83.394047	83.030617	28.360164	30.000000	0.000000	82.997762	139.577017	48.466123
3961.250000	65.647685	83.052521	83.419341	83.052521	28.379675	30.000000	0.000000	83.168121	139.687688	48.495219
3961.260000	65.764699	83.065906	83.440455	83.065906	28.412253	30.000000	0.000000	83.155953	139.810656	48.504917
3961.270000	65.764699	83.070773	83.445344	83.070773	28.413918	30.000000	0.000000	83.192458	139.933623	48.553411
3961.280000	65.831422	83.068340	83.447274	83.068340	28.429059	30.000000	0.000000	83.155953	140.019701	48.611603
3961.290000	65.928314	83.073207	83.458519	83.073207	28.453928	30.000000	0.000000	83.143784	140.191856	48.601904
3961.300000	66.121842	83.086592	83.484667	83.086592	28.504886	30.000000	0.000000	83.168121	140.327121	48.747384
3961.310000	66.228004	83.115797	83.520985	83.115797	28.540365	30.000000	0.000000	83.265469	140.450089	48.912262
3961.320000	66.287110	83.154736	83.563999	83.154736	28.567920	30.000000	0.000000	83.338480	140.659134	48.989852
3961.330000	66.408976	83.205843	83.623375	83.205843	28.614752	30.000000	0.000000	83.472333	140.843586	49.135332
3961.340000	66.623832	83.263035	83.695006	83.263035	28.686093	30.000000	0.000000	83.569680	141.114115	49.222620
3961.350000	66.714810	83.311709	83.749932	83.311709	28.724765	30.000000	0.000000	83.654860	141.384645	49.271114
3961.360000	66.827846	83.367684	83.813662	83.367684	28.771306	30.000000	0.000000	83.715702	141.679768	49.319607
3961.370000	66.942891	83.427309	83.881208	83.427309	28.819638	30.000000	0.000000	83.788713	142.085562	49.329306
3961.380000	67.124013	83.493019	83.959258	83.493019	28.886088	30.000000	0.000000	83.813050	142.392982	49.397196
3961.390000	67.371462	83.562379	84.045401	83.562379	28.969947	30.000000	0.000000	83.837387	142.724995	49.339004
3961.400000	67.476940	83.634173	84.124609	83.634173	29.020390	30.000000	0.000000	83.886061	142.995525	49.377799
3961.410000	67.559460	83.704751	84.201081	83.704751	29.064894	30.000000	0.000000	83.971240	143.364429	49.377799
3961.420000	67.622182	83.788713	84.289713	83.788713	29.109279	30.000000	0.000000	84.178104	143.893191	49.309908
3961.430000	67.708262	83.876326	84.383582	83.876326	29.160647	30.000000	0.000000	84.348463	144.089940	49.183825
3961.440000	67.776322	83.954204	84.466469	83.954204	29.204290	30.000000	0.000000	84.348463	144.089940	49.183825
3961.450000	67.837122	84.030866	84.547657	84.030866	29.245775	30.000000	0.000000	84.421473	144.237501	49.067441
3961.460000	67.889315	84.125780	84.646643	84.125780	29.291544	30.000000	0.000000	84.664843	144.434250	49.018948
3961.470000	67.939590	84.252332	84.777344	84.252332	29.347897	30.000000	0.000000	85.054234	144.667889	48.863769
3961.480000	67.939590	84.392269	84.918153	84.392269	29.396641	30.000000	0.000000	85.212424	144.778560	49.009249
3961.490000	68.106307	84.540724	85.078737	84.540724	29.489257	30.000000	0.000000	85.321940	144.913825	48.970454
3961.500000	68.106307	84.685529	85.224463	84.685529	29.539767	30.000000	0.000000	85.334109	145.073683	48.873467
3961.510000	68.328738	84.815732	85.370499	84.815732	29.639968	30.000000	0.000000	85.273266	145.245838	48.805577
3961.520000	68.438198	84.909429	85.472204	84.909429	29.699715	30.000000	0.000000	85.115076	145.405697	48.786179
3961.530000	68.583467	84.970271	85.543276	84.970271	29.756873	30.000000	0.000000	84.956886	145.504071	48.727987
3961.540000	68.705811	85.027463	85.609138	85.027463	29.807151	30.000000	0.000000	84.920381	145.614742	48.708590
3961.550000	68.763508	85.073703	85.659605	85.073703	29.837638	30.000000	0.000000	84.883875	145.614742	48.776481
3961.560000	68.786903	85.101691	85.689372	85.101691	29.853245	30.000000	0.000000	84.944718	145.663929	48.912262
3961.570000	68.803259	85.105341	85.694156	85.105341	29.858575	30.000000	0.000000	85.090739	145.627039	48.970454
3961.580000	68.822706	85.106558	85.696700	85.106558	29.863817	30.000000	0.000000	85.224592	145.540961	49.203223
3961.590000	68.887434	85.112643	85.707217	85.112643	29.881982	30.000000	0.000000	85.382783	145.688523	49.358402
3961.600000	68.910833	85.134546	85.730861	85.134546	29.895469	30.000000	0.000000	85.553141	145.811491	49.494183
3961.610000	68.995008	85.171051	85.773338	85.171051	29.929155	30.000000	0.000000	85.638320	146.020537	49.581471
3961.620000	69.170240	85.225809	85.840393	85.225809	29.991883	30.000000	0.000000	85.662657	146.303363	49.600869
3961.630000	69.660553	85.289085	85.937510	85.289085	30.136044	30.000000	0.000000	85.589647	146.672267	49.542677
3961.640000	69.856102	85.343843	86.006022	85.343843	30.204090	30.000000	0.000000	85.467962	147.053468	49.377799
3961.650000	70.015835	85.383999	86.057396	85.383999	30.258121	30.000000	0.000000	85.285435	147.446965	49.203223
3961.660000	70.089510	85.397385	86.075920	85.397385	30.281241	30.000000	0.000000	85.078571	147.692901	48.931660
3961.670000	70.184740	85.379132	86.064028	85.379132	30.298522	30.000000	0.000000	84.908212	147.901947	49.048044
3961.680000	70.184740	85.340193	86.024776	85.340193	30.284704	30.000000	0.000000	84.835201	148.024915	49.067441
3961.690000	70.168418	85.290302	85.973371	85.290302	30.262931	30.000000	0.000000	84.883875	148.024915	49.261415
3961.700000	70.168418	85.236761	85.919401	85.236761	30.243934	30.000000	0.000000	85.017728	148.012618	49.513581
3961.710000	70.168632	85.189304	85.871579	85.189304	30.227148	30.000000	0.000000	85.163750	147.963431	49.785144
3961.720000	70.172368	85.157666	85.839942	85.157666	30.216852	30.000000	0.000000	85.346277	147.963431	50.076104
3961.730000	70.192065	85.150365	85.833924	85.150365	30.219162	30.000000	0.000000	85.516636	148.061805	50.289476
3961.740000	70.258423	85.162533	85.850714	85.162533	30.239995	30.000000	0.000000	85.589647	148.283148	50.425257
3961.750000	70.561575	85.192954	85.902063	85.192954	30.326313	30.000000	0.000000	85.589647	148.615161	50.522244
3961.760000	71.167540	85.231894	85.982747	85.231894	30.491407	30.000000	0.000000	85.467962	149.008659	50.444655
3961.770000	71.300493	85.284218	86.044637	85.284218	30.543367	30.000000	0.000000	85.431456	149.402156	50.396161
3961.780000	71.469250	85.335326	86.107768	85.335326	30.603908	30.000000	0.000000	85.346277	149.930919	50.270078
3961.790000	71.585934	85.373048	86.153838	85.373048	30.646667	30.000000	0.000000	85.261098	150.324417	50.250681
3961.800000	71.648482	85.396168	86.181463	85.396168	30.670644	30.000000	0.000000	85.248929	150.656430	50.231283
3961.810000	71.693337	85.409553	86.198052	85.409553	30.686698	30.000000	0.000000	85.297603	150.890070	50.308873
3961.820000	71.709606	85.407120	86.196713	85.407120	30.689903	30.000000	0.000000	85.321940	151.099115	50.415558
3961.830000	71.706334	85.430240	86.219822	85.430240	30.697390	30.000000	0.000000	85.747837	151.320458	50.774410
3961.840000	71.713547	85.464311	86.254704	85.464311	30.711443	30.000000	0.000000	85.930364	151.443426	50.900493
3961.850000	71.727965	85.498383	86.290082	85.498383	30.727306	30.000000	0.000000	85.930364	151.443426	50.900493
3961.860000	71.797707	85.558009	86.355059	85.558009	30.766257	30.000000	0.000000	86.064217	151.590987	51.133261
3961.870000	71.950198	85.637104	86.445397	85.637104	30.833060	30.000000	0.000000	86.222407	152.082860	51.201152
3961.880000	72.201063	85.725933	86.552379	85.725933	30.928256	30.000000	0.000000	86.234576	152.377983	51.094467
3961.890000	72.434269	85.818414	86.661875	85.818414	31.020493	30.000000	0.000000	86.185902	152.709997	50.871397
3961.900000	72.554220	85.916978	86.769716	85.916978	31.086454	30.000000	0.000000	86.234576	152.943636	50.628930
3961.910000	72.663701	86.016760	86.878082	86.016760	31.150284	30.000000	0.000000	86.295418	153.140385	50.473751
3961.920000	72.730249	86.126276	86.993318	86.126276	31.206825	30.000000	0.000000	86.417103	153.300243	50.328270
3961.930000	72.766045	86.216323	87.086761	86.216323	31.248543	30.000000	0.000000	86.648304	153.349431	50.367065
3961.940000	72.776507	86.311237	87.183362	86.311237	31.285604	30.000000	0.000000	86.879505	153.349431	50.289476
3961.950000	72.780440	86.429271	87.302863	86.429271	31.329390	30.000000	0.000000	87.110706	153.238759	50.405860
3961.960000	72.796805	86.566775	87.442900	86.566775	31.383407	30.000000	0.000000	87.439254	153.349431	50.493148
3961.970000	72.807132	86.705495	87.583747	86.705495	31.436336	30.000000	0.000000	87.609613	153.374024	50.609532
3961.980000	72.873688	86.858818	87.743288	86.858818	31.508959	30.000000	0.000000	87.767803	153.533883	50.677423
3961.990000	73.064125	87.029177	87.928762	87.029177	31.619612	30.000000	0.000000	87.889488	153.779819	50.677423
3962.000000	73.309934	87.186150	88.104672	87.186150	31.739860	30.000000	0.000000	87.804308	154.074942	50.658026
3962.010000	73.462493	87.332172	88.263002	87.332172	31.832344	30.000000	0.000000	87.755635	154.456143	50.658026
3962.020000	73.693944	87.456290	88.404817	87.456290	31.937367	30.000000	0.000000	87.658287	154.837344	50.599834
3962.030000	73.839196	87.552421	88.512284	87.552421	32.010054	30.000000	0.000000	87.609613	155.230842	50.599834
3962.040000	74.054474	87.621781	88.597680	87.621781	32.091187	30.000000	0.000000	87.573107	155.538262	50.677423
3962.050000	74.094185	87.674106	88.653408	87.674106	32.120650	30.000000	0.000000	87.633950	155.747308	50.784109
3962.060000	74.128149	87.697226	88.679200	87.697226	32.137932	30.000000	0.000000	87.670455	155.968651	50.919890
3962.070000	74.144335	87.709394	88.692655	87.709394	32.146592	30.000000	0.000000	87.731298	156.128509	51.133261
3962.080000	74.167859	87.714262	88.699249	87.714262	32.154481	30.000000	0.000000	87.816477	156.276071	51.317536
3962.090000	74.198411	87.728864	88.716187	87.728864	32.167765	30.000000	0.000000	88.035509	156.448226	51.530907
3962.100000	74.229279	87.759285	88.749147	87.759285	32.186936	30.000000	0.000000	88.108520	156.644975	51.695785
3962.110000	74.309974	87.804308	88.800422	87.804308	32.224421	30.000000	0.000000	88.205868	156.878615	51.880060
3962.120000	74.452450	87.860283	88.867183	87.860283	32.282029	30.000000	0.000000	88.218036	157.112254	52.044938
3962.130000	74.627708	87.915042	88.935070	87.915042	32.347792	30.000000	0.000000	88.157194	157.407377	52.035239
3962.140000	74.749767	87.973450	89.002873	87.973450	32.401109	30.000000	0.000000	88.157194	157.628720	52.083733
3962.150000	74.921970	88.018474	89.060733	88.018474	32.462635	30.000000	0.000000	88.084183	157.997624	52.112829
3962.160000	75.207533	88.047678	89.110717	88.047678	32.548014	30.000000	0.000000	87.962499	158.218967	52.161322
3962.170000	75.300809	88.070798	89.140797	88.070798	32.580952	30.000000	0.000000	87.962499	158.440310	52.219514
3962.180000	75.405415	88.082966	89.160608	88.082966	32.612820	30.000000	0.000000	87.938162	158.661652	52.248610
3962.190000	75.405415	88.072015	89.149522	88.072015	32.608765	30.000000	0.000000	87.925993	158.821511	52.297104
3962.200000	75.561931	88.059846	89.148421	88.059846	32.645213	30.000000	0.000000	87.986836	159.005963	52.423187
3962.210000	75.588480	88.048895	89.139237	88.048895	32.648100	30.000000	0.000000	88.096352	159.141228	52.578366
3962.220000	75.612030	88.045244	89.137230	88.045244	32.652910	30.000000	0.000000	88.181531	159.264196	52.675353
3962.230000	75.644793	88.058629	89.153130	88.058629	32.666451	30.000000	0.000000	88.291047	159.448648	52.869326
3962.240000	75.811718	88.087834	89.194673	88.087834	32.721008	30.000000	0.000000	88.449237	159.829850	53.063300
3962.250000	75.811718	88.125556	89.232869	88.125556	32.735021	30.000000	0.000000	88.461406	160.051192	53.111793
3962.260000	75.949963	88.175447	89.293319	88.175447	32.789819	30.000000	0.000000	88.461406	160.051192	53.111793
3962.270000	76.119218	88.219253	89.349853	88.219253	32.850553	30.000000	0.000000	88.400564	160.284832	53.121492
3962.280000	76.419306	88.269144	89.421994	88.269144	32.948033	30.000000	0.000000	88.437069	160.887376	53.140889
3962.290000	76.419306	88.317818	89.471303	88.317818	32.966201	30.000000	0.000000	88.412732	161.219390	53.189383
3962.300000	76.567978	88.371359	89.536270	88.371359	33.025350	30.000000	0.000000	88.522248	161.465326	53.305767
3962.310000	76.677981	88.418816	89.592297	88.418816	33.072090	30.000000	0.000000	88.570922	161.711262	53.334863
3962.320000	76.794830	88.461406	89.643897	88.461406	33.118856	30.000000	0.000000	88.607428	161.895715	53.519138
3962.330000	76.852368	88.507646	89.694917	88.507646	33.151364	30.000000	0.000000	88.753449	162.117057	53.664619
3962.340000	76.899511	88.550236	89.741491	88.550236	33.179775	30.000000	0.000000	88.875134	162.264619	53.800400
3962.350000	76.949560	88.608644	89.804311	88.608644	33.214899	30.000000	0.000000	89.045493	162.399884	53.945881
3962.360000	77.028527	88.675571	89.877866	88.675571	33.260892	30.000000	0.000000	89.130672	162.670414	54.062265
3962.370000	77.111408	88.753449	89.962817	88.753449	33.312071	30.000000	0.000000	89.179346	162.830273	54.110758
3962.380000	77.204681	88.832544	90.049769	88.832544	33.366508	30.000000	0.000000	89.228020	163.113100	54.188348
3962.390000	77.341189	88.917724	90.146049	88.917724	33.434774	30.000000	0.000000	89.264525	163.395926	54.110758
3962.400000	77.724591	88.991951	90.249251	88.991951	33.564728	30.000000	0.000000	89.264525	163.727941	54.304732
3962.410000	77.850730	89.057661	90.325098	89.057661	33.623136	30.000000	0.000000	89.228020	164.059955	54.333828
3962.420000	77.967577	89.118503	90.395346	89.118503	33.677287	30.000000	0.000000	89.215851	164.318188	54.372623
3962.430000	78.014750	89.167177	90.448168	89.167177	33.708279	30.000000	0.000000	89.240188	164.564124	54.469610
3962.440000	78.100454	89.208550	90.496408	89.208550	33.746824	30.000000	0.000000	89.288862	164.822358	54.585994
3962.450000	78.133344	89.234104	90.524739	89.234104	33.765284	30.000000	0.000000	89.301031	165.068294	54.663584
3962.460000	78.183333	89.263308	90.558029	89.263308	33.789707	30.000000	0.000000	89.422715	165.301934	54.809064
3962.470000	78.240879	89.297380	90.596813	89.297380	33.818006	30.000000	0.000000	89.520063	165.461792	54.973942
3962.480000	78.309476	89.335102	90.640116	89.335102	33.850663	30.000000	0.000000	89.605242	165.683135	55.177614
3962.490000	78.360313	89.380126	90.689528	89.380126	33.881347	30.000000	0.000000	89.714759	165.892181	55.245505
3962.500000	78.455306	89.431233	90.748363	89.431233	33.926199	30.000000	0.000000	89.775601	166.138118	55.381286
3962.510000	78.567188	89.488425	90.814624	89.488425	33.977933	30.000000	0.000000	89.799938	166.494725	55.546164
3962.520000	78.752637	89.548051	90.888784	89.548051	34.050417	30.000000	0.000000	89.812106	166.752959	55.623754
3962.530000	78.831615	89.611327	90.958828	89.611327	34.095729	30.000000	0.000000	89.872949	167.084973	55.604356
3962.540000	78.898496	89.679470	91.032930	89.679470	34.139671	30.000000	0.000000	89.970297	167.343206	55.478273
3962.550000	78.898496	89.745180	91.099632	89.745180	34.164686	30.000000	0.000000	89.958128	167.539955	55.323094
3962.560000	79.008675	89.810890	91.174476	89.810890	34.219429	30.000000	0.000000	90.079813	167.761298	55.138819
3962.570000	79.323503	89.883900	91.271896	89.883900	34.332322	30.000000	0.000000	90.250172	167.859673	55.022435
3962.580000	79.382780	89.976381	91.370198	89.976381	34.383690	30.000000	0.000000	90.530046	167.970344	54.983640
3962.590000	79.406380	90.083463	91.480692	90.083463	34.431007	30.000000	0.000000	90.785584	168.117906	55.003038
3962.600000	79.435430	90.208799	91.610130	90.208799	34.486796	30.000000	0.000000	91.028954	168.142500	55.061230
3962.610000	79.459031	90.358471	91.763885	90.358471	34.550433	30.000000	0.000000	91.296660	168.216281	55.148518
3962.620000	79.502337	90.531263	91.942596	90.531263	34.628302	30.000000	0.000000	91.540030	168.339249	55.235806
3962.630000	79.585216	90.704056	92.124280	90.704056	34.717023	30.000000	0.000000	91.600872	168.572889	55.313396
3962.640000	79.837590	90.882932	92.324876	90.882932	34.854564	30.000000	0.000000	91.759062	169.138543	55.468575
3962.650000	80.013676	91.060592	92.518590	91.060592	34.971021	30.000000	0.000000	91.734725	169.482854	55.468575
3962.660000	80.190847	91.226083	92.700079	91.226083	35.083313	30.000000	0.000000	91.734725	169.482854	55.468575
3962.670000	80.392127	91.369671	92.861185	91.369671	35.194023	30.000000	0.000000	91.686052	169.851759	55.565562
3962.680000	80.531508	91.482838	92.986741	91.482838	35.276106	30.000000	0.000000	91.661715	170.220664	55.575260
3962.690000	80.622065	91.566800	93.078943	91.566800	35.333524	30.000000	0.000000	91.625209	170.823208	55.759535
3962.700000	80.645676	91.630077	93.145054	91.630077	35.364476	30.000000	0.000000	91.661715	170.995364	55.943810
3962.710000	80.681322	91.678750	93.197236	91.678750	35.393133	30.000000	0.000000	91.783399	171.229004	56.128086
3962.720000	80.728544	91.710388	93.232982	91.710388	35.418432	30.000000	0.000000	91.856410	171.388862	56.380251
3962.730000	80.804643	91.748111	93.277109	91.748111	35.454098	30.000000	0.000000	91.978095	171.536424	56.574225
3962.740000	80.837649	91.776098	93.308070	91.776098	35.474068	30.000000	0.000000	92.038937	171.708580	56.787596
3962.750000	80.888691	91.813821	93.350302	91.813821	35.502815	30.000000	0.000000	92.111948	171.929923	56.855487
3962.760000	80.979259	91.850326	93.394307	91.850326	35.542082	30.000000	0.000000	92.099780	172.212750	57.117352
3962.770000	81.289218	91.886831	93.455025	91.886831	35.642374	30.000000	0.000000	92.051106	172.544764	57.214339
3962.780000	81.499539	91.920903	93.505711	91.920903	35.714128	30.000000	0.000000	92.002432	172.741514	57.321024
3962.790000	81.584966	91.952541	93.544412	91.952541	35.750216	30.000000	0.000000	91.941590	173.085825	57.379216
3962.800000	81.704718	91.970794	93.572122	91.970794	35.790688	30.000000	0.000000	91.844242	173.380949	57.466505
3962.810000	81.912084	91.965926	93.583006	91.965926	35.846614	30.000000	0.000000	91.734725	173.651479	57.573190
3962.820000	82.002682	91.962276	93.586213	91.962276	35.870464	30.000000	0.000000	91.819905	173.897416	57.718671
3962.830000	82.040486	91.952541	93.579195	91.952541	35.877214	30.000000	0.000000	91.880747	174.094165	57.883548
3962.840000	82.093285	91.937939	93.568369	91.937939	35.886246	30.000000	0.000000	91.892916	174.217134	58.019330
3962.850000	82.186422	91.930638	93.568056	91.930638	35.909384	30.000000	0.000000	92.038937	174.426180	58.242400
3962.860000	82.186422	91.933072	93.570533	91.933072	35.910334	30.000000	0.000000	92.124117	174.561445	58.397579
3962.870000	82.247003	91.942806	93.585072	91.942806	35.931047	30.000000	0.000000	92.148454	174.758194	58.610950
3962.880000	82.349583	91.958625	93.609019	91.958625	35.965875	30.000000	0.000000	92.160622	174.979537	58.717636
3962.890000	82.485231	91.985396	93.646652	91.985396	36.014250	30.000000	0.000000	92.209296	175.188584	58.824321
3962.900000	82.640635	92.023118	93.696960	92.023118	36.072483	30.000000	0.000000	92.221464	175.471411	58.901911
3962.910000	82.774632	92.069359	93.754315	92.069359	36.128122	30.000000	0.000000	92.197128	175.717347	58.979500
3962.920000	83.046774	92.105864	93.812377	92.105864	36.218714	30.000000	0.000000	92.184959	175.963284	59.018295
3962.930000	83.190255	92.135068	93.853147	92.135068	36.270448	30.000000	0.000000	92.172791	176.405970	59.086186
3962.940000	83.295031	92.163056	93.889712	92.163056	36.310878	30.000000	0.000000	92.172791	176.405970	59.086186
3962.950000	83.368349	92.180092	93.912707	92.180092	36.338182	30.000000	0.000000	92.209296	176.676501	59.318954
3962.960000	83.432911	92.191043	93.928832	92.191043	36.360638	30.000000	0.000000	92.233633	176.860953	59.367448
3962.970000	83.499921	92.216597	93.960026	92.216597	36.389552	30.000000	0.000000	92.403992	177.131484	59.639011
3962.980000	83.576418	92.248235	93.998155	92.248235	36.423551	30.000000	0.000000	92.477002	177.254452	59.774793
3962.990000	83.696971	92.276223	94.035965	92.276223	36.468529	30.000000	0.000000	92.489171	177.426608	59.862081
3963.000000	83.696971	92.317595	94.078127	92.317595	36.484880	30.000000	0.000000	92.635193	177.574170	59.910575
3963.010000	83.898011	92.367486	94.144488	92.367486	36.561259	30.000000	0.000000	92.696035	177.709435	60.036658
3963.020000	84.029812	92.425895	94.214207	92.425895	36.621570	30.000000	0.000000	92.769046	177.979966	60.056055
3963.030000	84.029812	92.484304	94.273746	92.484304	36.644713	30.000000	0.000000	92.756877	178.201309	60.172439
3963.040000	84.185242	92.545146	94.347799	92.545146	36.712756	30.000000	0.000000	92.781214	178.348871	60.153042
3963.050000	84.428941	92.605988	94.428718	92.605988	36.805869	30.000000	0.000000	92.817720	178.619401	60.191837
3963.060000	84.555094	92.668048	94.501790	92.668048	36.866285	30.000000	0.000000	92.854225	178.803854	60.220933
3963.070000	84.645740	92.715505	94.557228	92.715505	36.910876	30.000000	0.000000	92.878562	179.025197	60.317920
3963.080000	84.745905	92.765395	94.615898	92.765395	36.959173	30.000000	0.000000	92.975910	179.185056	60.288824
3963.090000	84.812931	92.816503	94.673241	92.816503	36.998578	30.000000	0.000000	93.000247	179.344915	60.288824
3963.100000	84.899737	92.865177	94.729648	92.865177	37.042663	30.000000	0.000000	93.121932	179.492477	60.211234
3963.110000	84.976290	92.922369	94.793955	92.922369	37.087262	30.000000	0.000000	93.267953	179.640039	60.046356
3963.120000	85.086726	92.991729	94.873329	92.991729	37.146406	30.000000	0.000000	93.462649	179.713820	59.687505
3963.130000	85.120602	93.080559	94.966603	93.080559	37.191552	30.000000	0.000000	93.645176	179.775304	59.755396
3963.140000	85.167849	93.193726	95.085759	93.193726	37.250263	30.000000	0.000000	93.912883	179.824492	59.619614
3963.150000	85.201005	93.330013	95.227410	93.330013	37.314223	30.000000	0.000000	94.180589	179.787601	59.629313
3963.160000	85.250569	93.484552	95.388982	93.484552	37.390213	30.000000	0.000000	94.399622	179.836788	59.639011
3963.170000	85.364840	93.656128	95.573040	93.656128	37.491652	30.000000	0.000000	94.594317	179.972054	59.639011
3963.180000	85.364840	93.821619	95.741919	93.821619	37.557900	30.000000	0.000000	94.630823	180.045835	59.571120
3963.190000	85.517970	93.981026	95.916679	93.981026	37.665859	30.000000	0.000000	94.594317	180.217991	59.493531
3963.200000	85.637950	94.116096	96.064023	94.116096	37.754647	30.000000	0.000000	94.472633	180.328662	59.474134
3963.210000	85.984240	94.225612	96.203253	94.225612	37.898793	30.000000	0.000000	94.363116	180.488521	59.464435
3963.220000	86.084447	94.303491	96.290720	94.303491	37.959160	30.000000	0.000000	94.241432	180.586896	59.338352
3963.230000	86.118303	94.363116	96.354292	94.363116	37.992982	30.000000	0.000000	94.241432	180.562302	59.357749
3963.240000	86.141923	94.399622	96.393445	94.399622	38.014535	30.000000	0.000000	94.277937	180.611489	59.532326
3963.250000	86.149905	94.447079	96.442539	94.447079	38.035964	30.000000	0.000000	94.655160	180.586896	59.929972
3963.260000	86.149905	94.490885	96.487272	94.490885	38.053605	30.000000	0.000000	94.837687	180.623786	60.220933
3963.270000	86.273742	94.526174	96.533165	94.526174	38.103815	30.000000	0.000000	94.947203	180.709864	60.405208
3963.280000	86.331214	94.573631	96.586209	94.573631	38.139665	30.000000	0.000000	95.105393	180.906614	60.540990
3963.290000	86.661890	94.628389	96.668512	94.628389	38.258065	30.000000	0.000000	95.141899	181.214035	60.705867
3963.300000	86.982373	94.695316	96.762493	94.695316	38.378635	30.000000	0.000000	95.141899	181.558346	60.657374
3963.310000	87.193057	94.767110	96.852719	94.767110	38.469306	30.000000	0.000000	95.081056	182.001033	60.579784
3963.320000	87.399309	94.848639	96.952577	94.848639	38.562772	30.000000	0.000000	95.056719	182.382235	60.414907
3963.330000	87.509763	94.925300	97.039805	94.925300	38.626314	30.000000	0.000000	95.008046	182.763437	60.230631
3963.340000	87.568740	94.997094	97.117937	94.997094	38.672831	30.000000	0.000000	94.995877	183.070858	60.143343
3963.350000	87.645365	95.036033	97.163907	95.036033	38.711179	30.000000	0.000000	95.044551	183.255311	60.114247
3963.360000	87.700653	95.083490	97.216875	95.083490	38.746752	30.000000	0.000000	95.312258	183.415170	60.230631
3963.370000	87.716202	95.138248	97.274114	95.138248	38.773638	30.000000	0.000000	95.494785	183.550435	60.414907
3963.380000	87.716202	95.191790	97.328858	95.191790	38.795459	30.000000	0.000000	95.640806	183.599623	60.618579
3963.390000	87.747880	95.257499	97.398597	95.257499	38.831564	30.000000	0.000000	95.798997	183.710294	60.928937
3963.400000	87.753829	95.339028	97.482438	95.339028	38.866552	30.000000	0.000000	95.957187	183.833263	61.045322
3963.410000	87.848122	95.436376	97.589593	95.436376	38.934054	30.000000	0.000000	96.054535	184.005419	61.278090
3963.420000	88.017514	95.534941	97.704088	95.534941	39.024308	30.000000	0.000000	96.042366	184.325137	61.462365
3963.430000	88.269492	95.635939	97.827804	95.635939	39.140137	30.000000	0.000000	96.018029	184.620261	61.636942
3963.440000	88.529601	95.725986	97.941035	95.725986	39.254104	30.000000	0.000000	95.896344	184.964573	61.714531
3963.450000	88.706500	95.801430	98.032611	95.801430	39.337566	30.000000	0.000000	95.798997	185.345775	61.782422
3963.460000	88.887754	95.839153	98.085966	95.839153	39.406925	30.000000	0.000000	95.689480	185.665493	61.918204
3963.470000	89.019738	95.848887	98.106679	95.848887	39.450178	30.000000	0.000000	95.592132	185.960618	62.034588
3963.480000	89.090554	95.840369	98.103729	95.840369	39.467737	30.000000	0.000000	95.555627	186.181961	62.024889
3963.490000	89.153230	95.822117	98.090152	95.822117	39.478864	30.000000	0.000000	95.616469	186.378711	62.083082
3963.500000	89.186462	95.797780	98.067946	95.797780	39.478721	30.000000	0.000000	95.713817	186.526273	62.170370
3963.510000	89.210065	95.777093	98.048692	95.777093	39.477216	30.000000	0.000000	95.847671	186.587757	62.160671
3963.520000	89.239498	95.773443	98.047352	95.773443	39.484465	30.000000	0.000000	96.005861	186.636945	62.247959
3963.530000	89.239498	95.789262	98.063547	95.789262	39.490987	30.000000	0.000000	96.176219	186.624648	62.325549
3963.540000	89.339739	95.825767	98.109091	95.825767	39.535873	30.000000	0.000000	96.261399	186.673835	62.432235
3963.550000	89.434168	95.897561	98.190301	95.897561	39.593629	30.000000	0.000000	96.516937	186.747616	62.471029
3963.560000	89.577823	95.990042	98.296732	95.990042	39.674673	30.000000	0.000000	96.614285	186.858288	62.538920
3963.570000	89.764878	96.097124	98.421698	96.097124	39.774834	30.000000	0.000000	96.662959	187.030444	62.519523
3963.580000	89.865118	96.212725	98.548314	96.212725	39.852688	30.000000	0.000000	96.711633	187.178006	62.538920
3963.590000	89.993347	96.324675	98.673511	96.324675	39.937504	30.000000	0.000000	96.735969	187.399349	62.374042
3963.600000	89.993347	96.437842	98.789437	96.437842	39.984425	30.000000	0.000000	96.845486	187.559209	62.441933
3963.610000	90.170233	96.542491	98.903376	96.542491	39.974749	30.000000	0.000000	96.894160	187.792849	62.519523
3963.620000	90.349585	96.638622	99.008384	96.638622	39.956506	30.000000	0.000000	96.967171	187.940411	62.616510
3963.630000	90.408375	96.729885	99.104026	96.729885	39.975201	30.000000	0.000000	97.088855	188.051083	62.771689
3963.640000	90.475365	96.819932	99.198724	96.819932	39.990702	30.000000	0.000000	97.161866	188.210942	62.975361
3963.650000	90.573661	96.895377	99.279606	96.895377	39.989986	30.000000	0.000000	97.271383	188.383098	63.198431
3963.660000	90.679602	96.976905	99.367006	96.976905	39.989257	30.000000	0.000000	97.429573	188.739707	63.586379
3963.670000	90.819866	97.059651	99.456911	97.059651	39.977839	30.000000	0.000000	97.490415	188.961050	63.945231
3963.680000	90.975499	97.137529	99.542396	97.137529	39.959364	30.000000	0.000000	97.490415	188.961050	63.945231
3963.690000	90.975499	97.215408	99.622202	97.215408	39.991401	30.000000	0.000000	97.514752	189.243878	64.197397
3963.700000	91.270976	97.285985	99.705327	97.285985	39.924365	30.000000	0.000000	97.551258	189.637377	64.721126
3963.710000	91.387706	97.352911	99.778186	97.352911	39.913871	30.000000	0.000000	97.563426	189.858720	64.992690
3963.720000	91.469995	97.412537	99.842306	97.412537	39.911548	30.000000	0.000000	97.563426	190.030876	65.244856
3963.730000	91.554897	97.469729	99.904031	97.469729	39.907350	30.000000	0.000000	97.660774	190.227626	65.545515
3963.740000	91.635309	97.509885	99.948133	97.509885	39.897616	30.000000	0.000000	97.563426	190.399782	65.826777
3963.750000	91.660739	97.525704	99.965278	97.525704	39.895811	30.000000	0.000000	97.429573	190.498157	66.146834
3963.760000	91.711947	97.513535	99.954679	97.513535	39.874168	30.000000	0.000000	97.307888	190.633422	66.282616
3963.770000	91.788583	97.486765	99.930041	97.486765	39.838291	30.000000	0.000000	97.222709	190.645719	66.389302
3963.780000	91.915040	97.459994	99.907222	97.459994	39.786235	30.000000	0.000000	97.222709	190.719500	66.525083
3963.790000	91.973707	97.441741	99.890654	97.441741	39.759717	30.000000	0.000000	97.332225	190.719500	66.622070
3963.800000	91.991681	97.435657	99.885074	97.435657	39.751394	30.000000	0.000000	97.490415	190.633422	66.748153
3963.810000	92.015253	97.456343	99.907141	97.456343	39.752172	30.000000	0.000000	97.770290	190.522751	66.913031
3963.820000	92.050341	97.505017	99.958322	97.505017	39.760618	30.000000	0.000000	98.050165	190.485860	67.068210
3963.830000	92.126972	97.573161	100.030983	97.573161	39.763475	30.000000	0.000000	98.342209	190.498157	67.262184
3963.840000	92.192093	97.675376	100.138157	97.675376	39.783926	30.000000	0.000000	98.585578	190.510454	67.310678
3963.850000	92.300593	97.814097	100.284352	97.814097	39.805057	30.000000	0.000000	98.816779	190.645719	67.058512
3963.860000	92.517606	97.986889	100.469473	97.986889	39.804530	30.000000	0.000000	99.035812	190.780985	67.107005
3963.870000	92.765921	98.185235	100.681971	98.185235	39.803922	30.000000	0.000000	99.206171	191.051516	67.000319
3963.880000	92.951061	98.398184	100.907150	98.398184	39.829624	30.000000	0.000000	99.352193	191.223672	66.951826
3963.890000	93.087721	98.614783	101.134312	98.614783	39.872467	30.000000	0.000000	99.498214	191.457312	66.893634
3963.900000	93.164348	98.828948	101.356781	98.828948	39.933873	30.000000	0.000000	99.632068	191.629468	66.951826
3963.910000	93.281220	99.030945	101.568271	99.030945	39.977011	30.000000	0.000000	99.790258	191.801624	67.039114
3963.920000	93.314490	99.232942	101.776677	99.232942	40.047578	30.000000	0.000000	100.070133	191.936889	67.223389
3963.930000	93.346394	99.425203	101.975053	99.425203	40.114625	30.000000	0.000000	100.264829	192.059858	67.368870
3963.940000	93.404947	99.611381	102.168185	99.611381	40.170356	30.000000	0.000000	100.447356	192.170530	67.465857
3963.950000	93.475593	99.797559	102.361776	99.797559	40.222006	30.000000	0.000000	100.678557	192.293498	67.533748
3963.960000	93.659017	99.983737	102.559587	99.983737	40.236115	30.000000	0.000000	100.897590	192.416467	67.514350
3963.970000	93.759174	100.172348	102.756804	100.172348	40.278697	30.000000	0.000000	101.092285	192.625514	67.494953
3963.980000	93.862263	100.365827	102.959136	100.365827	40.322140	30.000000	0.000000	101.286981	192.797670	67.494953
3963.990000	93.982217	100.564173	103.167109	100.564173	40.361785	30.000000	0.000000	101.481677	192.896045	67.553145
3964.000000	94.067212	100.769821	103.381275	100.769821	40.415899	30.000000	0.000000	101.688541	193.031310	67.621036
3964.010000	94.132411	100.975468	103.594707	100.975468	40.476535	30.000000	0.000000	101.846731	193.154279	67.669529
3964.020000	94.132411	101.166513	103.790708	101.166513	40.553116	30.000000	0.000000	101.980585	193.437106	67.853805
3964.030000	94.209018	101.332005	103.963387	101.332005	40.593703	30.000000	0.000000	101.919742	193.547778	67.747119
3964.040000	94.347090	101.479243	104.119674	101.479243	40.606218	30.000000	0.000000	101.919742	193.547778	67.747119
3964.050000	94.451899	101.596061	104.243500	101.596061	40.617657	30.000000	0.000000	101.846731	193.621559	67.989586
3964.060000	94.549051	101.704360	104.358304	101.704360	40.628203	30.000000	0.000000	101.980585	193.695341	68.173862
3964.070000	94.619955	101.805359	104.464627	101.805359	40.644628	30.000000	0.000000	102.102269	193.707637	68.348438
3964.080000	94.661641	101.905140	104.568598	101.905140	40.670388	30.000000	0.000000	102.284797	193.695341	68.581207
3964.090000	94.738236	102.007355	104.676395	102.007355	40.685296	30.000000	0.000000	102.503829	193.695341	68.833373
3964.100000	94.799723	102.114438	104.788617	102.114438	40.707207	30.000000	0.000000	102.759368	193.769122	69.143731
3964.110000	94.884741	102.223954	104.904238	102.223954	40.722081	30.000000	0.000000	102.941895	193.965872	69.289212
3964.120000	95.003036	102.334688	105.022381	102.334688	40.726110	30.000000	0.000000	103.087917	194.150325	69.386199
3964.130000	95.200334	102.462457	105.161028	102.462457	40.710047	30.000000	0.000000	103.197433	194.383965	69.318308
3964.140000	95.371700	102.601177	105.309942	102.601177	40.706994	30.000000	0.000000	103.306949	194.666793	69.250417
3964.150000	95.590088	102.755717	105.476905	102.755717	40.694100	30.000000	0.000000	103.392129	195.047996	69.231019
3964.160000	95.760153	102.905389	105.637044	102.905389	40.695530	30.000000	0.000000	103.477308	195.392308	69.211622
3964.170000	95.916746	103.057495	105.799182	103.057495	40.702363	30.000000	0.000000	103.623330	195.662839	69.240718
3964.180000	95.969807	103.205951	105.953621	103.205951	40.742907	30.000000	0.000000	103.769352	195.908776	69.415295
3964.190000	96.071808	103.332503	106.087455	103.332503	40.758058	30.000000	0.000000	103.769352	196.117823	69.648063
3964.200000	96.138597	103.432285	106.192462	103.432285	40.774606	30.000000	0.000000	103.757183	196.351463	69.900230
3964.210000	96.180355	103.505296	106.269025	103.505296	40.789118	30.000000	0.000000	103.672004	196.523619	70.171793
3964.220000	96.241907	103.558837	106.326362	103.558837	40.789177	30.000000	0.000000	103.623330	196.609698	70.317274
3964.230000	96.294973	103.591692	106.362134	103.591692	40.783974	30.000000	0.000000	103.525982	196.831041	70.724619
3964.240000	96.398301	103.614812	106.389845	103.614812	40.757746	30.000000	0.000000	103.538151	197.027791	71.034977
3964.250000	96.548630	103.633065	106.414364	103.633065	40.713533	30.000000	0.000000	103.574656	197.150760	71.258047
3964.260000	96.657181	103.650101	106.436029	103.650101	40.683120	30.000000	0.000000	103.647667	197.384400	71.578104
3964.270000	96.775518	103.654968	106.445574	103.654968	40.644590	30.000000	0.000000	103.672004	197.544260	71.859367
3964.280000	96.884064	103.648884	106.443495	103.648884	40.605121	30.000000	0.000000	103.708509	197.777900	72.063039
3964.290000	97.030708	103.653751	106.454125	103.653751	40.556943	30.000000	0.000000	103.818026	198.048431	72.315205
3964.300000	97.204532	103.654968	106.462046	103.654968	40.498073	30.000000	0.000000	103.769352	198.343556	72.354000
3964.310000	97.354881	103.650101	106.462816	103.650101	40.444863	30.000000	0.000000	103.623330	198.626384	72.450987
3964.320000	97.354881	103.636715	106.449067	103.636715	40.439639	30.000000	0.000000	103.489477	198.810837	72.460686
3964.330000	97.620058	103.619679	106.441735	103.619679	40.342569	30.000000	0.000000	103.355623	199.032181	72.441288
3964.340000	97.700020	103.598993	106.423548	103.598993	40.307265	30.000000	0.000000	103.331286	199.376493	72.266712
3964.350000	97.772854	103.586824	106.413838	103.586824	40.277718	30.000000	0.000000	103.452971	199.413384	72.276411
3964.360000	97.781411	103.567355	106.394165	103.567355	40.267233	30.000000	0.000000	103.452971	199.413384	72.276411
3964.370000	97.813431	103.572222	106.400391	103.572222	40.258220	30.000000	0.000000	103.720678	199.376493	72.198821
3964.380000	97.836893	103.636715	106.467544	103.636715	40.275293	30.000000	0.000000	104.353439	199.351899	72.402494
3964.390000	97.958920	103.720678	106.558478	103.720678	40.266313	30.000000	0.000000	104.657651	199.401087	72.489782
3964.400000	97.958920	103.838712	106.679741	103.838712	40.312136	30.000000	0.000000	104.949695	199.511759	72.383096
3964.410000	98.085832	103.971349	106.820882	103.971349	40.320261	30.000000	0.000000	104.949695	199.511759	72.383096
3964.420000	98.302880	104.122238	106.984254	104.122238	40.304533	30.000000	0.000000	104.998369	199.733102	72.596468
3964.430000	98.501246	104.268260	107.141925	104.268260	40.293142	30.000000	0.000000	104.815841	200.384837	72.538275
3964.440000	98.742851	104.399679	107.286273	104.399679	40.261149	30.000000	0.000000	104.645483	200.704555	72.363699
3964.450000	98.974640	104.498244	107.396495	104.498244	40.219715	30.000000	0.000000	104.438618	201.048868	72.189122
3964.460000	99.073181	104.568821	107.472827	104.568821	40.213095	30.000000	0.000000	104.158743	201.257915	72.053341
3964.470000	99.163229	104.612628	107.521322	104.612628	40.199063	30.000000	0.000000	104.158743	201.417774	71.936956
3964.480000	99.192937	104.598026	107.507459	104.598026	40.183267	30.000000	0.000000	104.207417	201.516149	71.985450
3964.490000	99.202869	104.566387	107.475323	104.566387	40.167709	30.000000	0.000000	104.341271	201.565337	72.024244
3964.500000	99.216366	104.531099	107.439573	104.531099	40.149530	30.000000	0.000000	104.596809	201.589930	72.208520
3964.510000	99.216366	104.521364	107.429567	104.521364	40.145791	30.000000	0.000000	104.852347	201.577633	72.363699
3964.520000	99.263219	104.538400	107.448882	104.538400	40.136284	30.000000	0.000000	105.168727	201.676008	72.567372
3964.530000	99.366755	104.600459	107.516658	104.600459	40.124629	30.000000	0.000000	105.436434	201.835868	72.683756
3964.540000	99.520717	104.697807	107.622655	104.697807	40.109175	30.000000	0.000000	105.618961	202.106399	72.741948
3964.550000	99.883006	104.823143	107.765467	104.823143	40.032884	30.000000	0.000000	105.691972	202.364634	72.693455
3964.560000	100.066626	104.964297	107.917672	104.964297	40.023747	30.000000	0.000000	105.570288	202.659759	72.586769
3964.570000	100.263874	105.101801	108.066665	105.101801	40.008395	30.000000	0.000000	105.533782	202.967181	72.489782
3964.580000	100.381013	105.218618	108.191307	105.218618	40.012580	30.000000	0.000000	105.375592	203.176227	72.392795
3964.590000	100.422935	105.306231	108.283017	105.306231	40.031471	30.000000	0.000000	105.217401	203.360681	72.179424
3964.600000	100.432835	105.359773	108.338455	105.359773	40.048417	30.000000	0.000000	105.132222	203.409868	72.431590
3964.610000	100.432835	105.390194	108.369737	105.390194	40.059980	30.000000	0.000000	105.156559	203.409868	72.528577
3964.620000	100.434055	105.410880	108.391055	105.410880	40.067423	30.000000	0.000000	105.375592	203.348384	72.732249
3964.630000	100.461264	105.431567	108.413380	105.431567	40.065913	30.000000	0.000000	105.643298	203.348384	72.877730
3964.640000	100.461264	105.463205	108.445913	105.463205	40.077936	30.000000	0.000000	105.935342	203.336087	73.100800
3964.650000	100.564867	105.516746	108.504984	105.516746	40.062570	30.000000	0.000000	106.227386	203.336087	73.246281
3964.660000	100.564867	105.598275	108.588821	105.598275	40.093524	30.000000	0.000000	106.385576	203.385274	73.420857
3964.670000	100.716417	105.701707	108.701064	105.701707	40.080479	30.000000	0.000000	106.568103	203.582024	73.566338
3964.680000	101.135412	105.819741	108.838716	105.819741	39.980533	30.000000	0.000000	106.555935	203.840259	73.721517
3964.690000	101.324066	105.942643	108.972452	105.942643	39.961787	30.000000	0.000000	106.446419	204.073900	73.624530
3964.700000	101.512750	106.052160	109.092434	106.052160	39.937868	30.000000	0.000000	106.227386	204.246056	73.692421
3964.710000	101.601417	106.144640	109.191014	106.144640	39.942025	30.000000	0.000000	106.081364	204.528884	73.740914
3964.720000	101.648127	106.214000	109.264182	106.214000	39.951961	30.000000	0.000000	106.069195	204.701040	73.789408
3964.730000	101.679089	106.267542	109.320466	106.267542	39.961382	30.000000	0.000000	106.178712	204.799415	73.866997
3964.740000	101.702444	106.310131	109.365189	106.310131	39.969309	30.000000	0.000000	106.361239	204.836306	73.934888
3964.750000	101.725798	106.385576	109.443711	106.385576	39.989581	30.000000	0.000000	106.981832	204.860900	74.206452
3964.760000	101.754263	106.487791	109.549975	106.487791	40.018129	30.000000	0.000000	107.407729	204.959275	74.351932
3964.770000	101.834558	106.571754	109.639485	106.571754	40.021813	30.000000	0.000000	107.407729	204.959275	74.351932
3964.780000	101.834558	106.693439	109.764673	106.693439	40.067510	30.000000	0.000000	107.772784	205.069947	74.497413
3964.790000	102.301699	106.879617	109.974479	106.879617	39.974929	30.000000	0.000000	108.308197	205.512635	74.759278
3964.800000	102.428713	107.103517	110.209837	107.103517	40.014428	30.000000	0.000000	108.466387	205.906135	74.807771
3964.810000	102.659378	107.349320	110.471820	107.349320	40.025762	30.000000	0.000000	108.539398	206.287338	74.856265
3964.820000	102.857941	107.589039	110.726316	107.589039	40.045727	30.000000	0.000000	108.466387	206.766917	74.739880
3964.830000	103.075186	107.825108	110.977821	107.825108	40.057519	30.000000	0.000000	108.539398	207.185011	74.575002
3964.840000	103.173616	108.050225	111.213402	108.050225	40.106625	30.000000	0.000000	108.612409	207.492433	74.361631
3964.850000	103.173616	108.224234	111.392505	108.224234	40.171214	30.000000	0.000000	108.721926	207.787558	74.187054
3964.860000	103.242026	108.379991	111.555527	108.379991	40.204964	30.000000	0.000000	108.965295	207.972011	74.148260
3964.870000	103.303663	108.557651	111.740834	108.557651	40.249154	30.000000	0.000000	109.184328	208.082683	74.157958
3964.880000	103.303663	108.726793	111.914935	108.726793	40.311866	30.000000	0.000000	109.464203	208.156465	74.313138
3964.890000	103.308876	108.869164	112.061688	108.869164	40.362810	30.000000	0.000000	109.731910	208.193355	74.390727
3964.900000	103.332176	109.018837	112.216677	109.018837	40.410058	30.000000	0.000000	109.963112	208.267137	74.594400
3964.910000	103.393879	109.180678	112.385722	109.180678	40.448190	30.000000	0.000000	110.157807	208.340918	74.691387
3964.920000	103.525103	109.349820	112.565062	109.349820	40.464306	30.000000	0.000000	110.157807	208.439293	74.768976
3964.930000	103.628818	109.503143	112.727034	109.503143	40.484212	30.000000	0.000000	110.072628	208.537668	74.778675
3964.940000	103.905136	109.626044	112.864593	109.626044	40.431461	30.000000	0.000000	109.841427	208.660637	74.865963
3964.950000	103.984872	109.720959	112.965498	109.720959	40.438121	30.000000	0.000000	109.671068	208.734418	74.739880
3964.960000	104.045616	109.785452	113.034327	109.785452	40.440286	30.000000	0.000000	109.610225	208.783606	75.079335
3964.970000	104.078789	109.837776	113.089527	109.837776	40.447758	30.000000	0.000000	109.707573	208.808200	75.195719
3964.980000	104.092167	109.873065	113.126396	109.873065	40.455992	30.000000	0.000000	109.817090	208.722121	75.447886
3964.990000	104.115440	109.892534	113.147373	109.892534	40.454878	30.000000	0.000000	109.926606	208.697528	75.641860
3965.000000	104.198518	109.904703	113.163226	109.904703	40.429789	30.000000	0.000000	110.084796	208.672934	75.874628
3965.010000	104.198518	109.909570	113.168238	109.909570	40.431579	30.000000	0.000000	110.206481	208.660637	76.088000
3965.020000	104.198518	109.932690	113.192043	109.932690	40.440084	30.000000	0.000000	110.389009	208.660637	76.214083
3965.030000	104.628838	109.985015	113.263140	109.985015	40.306158	30.000000	0.000000	110.595873	208.820496	76.349865
3965.040000	104.855050	110.078712	113.368684	110.078712	40.259968	30.000000	0.000000	110.778400	208.980356	76.437153
3965.050000	104.855050	110.200397	113.494005	110.200397	40.304473	30.000000	0.000000	110.887917	209.164809	76.456550
3965.060000	104.996348	110.339118	113.642538	110.339118	40.304812	30.000000	0.000000	110.997433	209.287778	76.446852
3965.070000	105.142118	110.485140	113.798782	110.485140	40.306110	30.000000	0.000000	111.167792	209.755060	76.485647
3965.080000	105.323579	110.631162	113.956474	110.631162	40.294536	30.000000	0.000000	111.277308	209.939513	76.553538
3965.090000	105.378934	110.766232	114.097830	110.766232	40.323932	30.000000	0.000000	111.277308	209.939513	76.553538
3965.100000	105.425389	110.912254	114.250114	110.912254	40.360455	30.000000	0.000000	111.545015	209.988701	76.718415
3965.110000	105.467422	111.068010	114.412253	111.068010	40.402062	30.000000	0.000000	111.764048	210.074779	76.883293
3965.120000	105.500555	111.262706	114.614149	111.262706	40.460984	30.000000	0.000000	112.335967	210.234639	77.213049
3965.130000	105.519366	111.454968	114.812963	111.454968	40.524133	30.000000	0.000000	112.518495	210.308420	77.251844
3965.140000	105.584623	111.626544	114.992351	111.626544	40.563006	30.000000	0.000000	112.494158	210.431389	77.571901
3965.150000	105.679440	111.776217	115.150382	111.776217	40.583194	30.000000	0.000000	112.384641	210.591248	77.630093
3965.160000	106.012997	111.907636	115.299304	111.907636	40.510515	30.000000	0.000000	112.311630	210.677327	77.717382
3965.170000	106.154409	112.023237	115.424149	112.023237	40.501298	30.000000	0.000000	112.323799	210.824889	77.843465
3965.180000	106.219649	112.137621	115.544656	112.137621	40.519076	30.000000	0.000000	112.421147	210.923265	77.969548
3965.190000	106.293821	112.258089	115.671801	112.258089	40.535776	30.000000	0.000000	112.481989	211.033937	78.085933
3965.200000	106.340205	112.361521	115.780266	112.361521	40.556335	30.000000	0.000000	112.579337	211.107718	78.241112
3965.210000	106.359058	112.451568	115.873820	112.451568	40.582007	30.000000	0.000000	112.664516	211.120015	78.454483
3965.220000	106.411019	112.492941	115.918569	112.492941	40.578109	30.000000	0.000000	112.749696	211.181499	78.696951
3965.230000	106.471924	112.518495	115.947383	112.518495	40.565255	30.000000	0.000000	112.774033	211.206093	78.813335
3965.240000	106.556793	112.550133	115.983443	112.550133	40.545903	30.000000	0.000000	112.810538	211.242984	79.017008
3965.250000	106.679390	112.581771	116.021042	112.581771	40.512866	30.000000	0.000000	112.701022	211.341359	79.269174
3965.260000	106.796582	112.604891	116.049643	112.604891	40.478713	30.000000	0.000000	112.542832	211.452031	79.560135
3965.270000	106.900310	112.612192	116.061393	112.612192	40.443753	30.000000	0.000000	112.396810	211.513515	79.841398
3965.280000	107.004035	112.609758	116.063109	112.609758	40.405306	30.000000	0.000000	112.396810	211.599594	80.142058
3965.290000	107.094522	112.593939	116.050489	112.593939	40.366864	30.000000	0.000000	112.323799	211.661078	80.374827
3965.300000	107.165391	112.562301	116.020763	112.562301	40.329870	30.000000	0.000000	112.262956	211.747156	80.578499
3965.310000	107.240523	112.514844	115.974903	112.514844	40.285691	30.000000	0.000000	112.189945	211.845531	80.782172
3965.320000	107.395289	112.440616	115.904681	112.440616	40.203183	30.000000	0.000000	112.007418	211.943907	80.753076
3965.330000	107.499019	112.339618	115.804780	112.339618	40.129630	30.000000	0.000000	111.764048	211.993094	81.150723
3965.340000	107.573206	112.222800	115.687366	112.222800	40.061157	30.000000	0.000000	111.642363	212.054579	81.325300
3965.350000	107.647393	112.114501	115.578726	112.114501	39.995783	30.000000	0.000000	111.618026	212.005391	81.577466
3965.360000	107.699377	112.020803	115.484236	112.020803	39.943657	30.000000	0.000000	111.605858	212.017688	81.887825
3965.370000	107.741435	111.936841	115.399377	111.936841	39.898602	30.000000	0.000000	111.557184	211.993094	82.217581
3965.380000	107.741435	111.851661	115.311563	111.851661	39.868241	30.000000	0.000000	111.545015	211.907016	82.595830
3965.390000	107.868287	111.776217	115.238902	111.776217	39.795831	30.000000	0.000000	111.569352	211.870125	82.896490
3965.400000	108.078573	111.697121	115.165830	111.697121	39.692297	30.000000	0.000000	111.472004	211.833234	83.129259
3965.410000	108.211159	111.614376	115.085852	111.614376	39.615425	30.000000	0.000000	111.362488	211.857828	83.294137
3965.420000	108.394841	111.535280	115.011682	111.535280	39.521661	30.000000	0.000000	111.216466	211.931610	83.274740
3965.430000	108.550552	111.464703	114.945159	111.464703	39.441023	30.000000	0.000000	111.058276	211.993094	83.206849
3965.440000	108.622136	111.397776	114.879015	111.397776	39.391790	30.000000	0.000000	110.973096	212.091469	83.265041
3965.450000	108.677358	111.328416	114.809701	111.328416	39.347567	30.000000	0.000000	110.924422	212.128360	83.362028
3965.460000	108.708871	111.261489	114.741945	111.261489	39.312680	30.000000	0.000000	110.936591	212.214438	83.633592
3965.470000	108.731963	111.207948	114.687653	111.207948	39.285536	30.000000	0.000000	111.021770	212.214438	83.934252
3965.480000	108.741002	111.153190	114.631544	111.153190	39.262974	30.000000	0.000000	110.997433	212.239032	84.729546
3965.490000	108.802646	111.102082	114.581303	111.102082	39.222985	30.000000	0.000000	111.058276	212.325110	85.127193
3965.500000	108.802646	111.060709	114.538634	111.060709	39.208379	30.000000	0.000000	111.058276	212.325110	85.127193
3965.510000	108.886770	111.033939	114.514388	111.033939	39.169017	30.000000	0.000000	111.094781	212.435782	85.311468
3965.520000	109.236141	111.022987	114.517050	111.022987	39.041006	30.000000	0.000000	111.106950	212.780095	85.796404
3965.530000	109.400902	111.018120	114.518608	111.018120	38.980786	30.000000	0.000000	111.009602	212.939955	86.009776
3965.540000	109.400902	111.005951	114.506056	111.005951	38.976513	30.000000	0.000000	110.851411	213.173596	86.310436
3965.550000	109.475959	110.986482	114.488967	110.986482	38.943038	30.000000	0.000000	110.729726	213.358049	86.601397
3965.560000	109.611221	110.971879	114.479299	110.971879	38.889928	30.000000	0.000000	110.790569	213.517909	86.892358
3965.570000	109.695348	110.954843	114.465079	110.954843	38.854124	30.000000	0.000000	110.851411	213.640878	87.183319
3965.580000	109.788557	110.949976	114.463773	110.949976	38.819373	30.000000	0.000000	110.948759	213.813034	87.357896
3965.590000	109.864130	110.948759	114.465529	110.948759	38.792160	30.000000	0.000000	111.046107	213.911410	87.755543
3965.600000	109.902177	110.947542	114.465789	110.947542	38.778250	30.000000	0.000000	111.046107	214.071269	87.881627
3965.610000	110.037458	110.936591	114.459879	110.936591	38.726492	30.000000	0.000000	110.985265	214.095863	88.221081
3965.620000	110.141131	110.930506	114.457730	110.930506	38.687649	30.000000	0.000000	111.046107	214.243426	88.560536
3965.630000	110.244797	110.948759	114.480690	110.948759	38.657301	30.000000	0.000000	111.192129	214.317207	88.890293
3965.640000	110.338857	111.007168	114.544705	111.007168	38.644331	30.000000	0.000000	111.435499	214.440176	89.103664
3965.650000	110.409070	111.091131	114.634141	111.091131	38.648673	30.000000	0.000000	111.569352	214.587739	89.317036
3965.660000	110.484085	111.187262	114.736329	111.187262	38.655509	30.000000	0.000000	111.751880	214.735302	89.423722
3965.670000	110.578146	111.290694	114.846817	111.290694	38.658081	30.000000	0.000000	111.885733	214.882864	89.588600
3965.680000	110.719446	111.384391	114.949150	111.384391	38.640444	30.000000	0.000000	111.885733	215.079615	89.675888
3965.690000	110.856035	111.461053	115.033721	111.461053	38.618511	30.000000	0.000000	111.812722	215.264068	90.034741
3965.700000	110.991344	111.547449	115.128293	111.547449	38.600350	30.000000	0.000000	111.910070	215.387037	90.316003
3965.710000	111.094541	111.654532	115.242940	111.654532	38.600700	30.000000	0.000000	112.056092	215.411631	90.432388
3965.720000	111.094541	111.772566	115.364768	111.772566	38.641506	30.000000	0.000000	112.226451	215.485412	90.616663
3965.730000	111.320463	111.893034	115.498158	111.893034	38.602657	30.000000	0.000000	112.396810	215.559194	90.723349
3965.740000	111.404583	112.002550	115.614575	112.002550	38.610449	30.000000	0.000000	112.530663	215.632975	90.956118
3965.750000	111.485241	112.099898	115.718297	112.099898	38.615232	30.000000	0.000000	112.542832	215.768241	91.062804
3965.760000	111.621357	112.163175	115.789077	112.163175	38.588453	30.000000	0.000000	112.384641	215.903507	91.276176
3965.770000	111.808685	112.208198	115.843072	112.208198	38.537089	30.000000	0.000000	112.335967	216.038773	91.557439
3965.780000	111.859907	112.259306	115.897891	112.259306	38.536359	30.000000	0.000000	112.396810	216.161742	91.790208
3965.790000	111.940566	112.334750	115.979019	112.334750	38.533452	30.000000	0.000000	112.567168	216.235523	91.964785
3965.800000	112.021228	112.417496	116.067689	112.417496	38.533014	30.000000	0.000000	112.737527	216.469164	92.168458
3965.810000	112.086215	112.502675	116.158247	112.502675	38.538976	30.000000	0.000000	112.907886	216.555243	92.372131
3965.820000	112.156564	112.581771	116.242741	112.581771	38.540906	30.000000	0.000000	113.017403	216.690509	92.556406
3965.830000	112.273540	112.660866	116.329115	112.660866	38.526118	30.000000	0.000000	113.187762	216.961040	93.089836
3965.840000	112.428005	112.735094	116.411977	112.735094	38.496201	30.000000	0.000000	113.272941	217.108603	93.380797
3965.850000	112.428005	112.820273	116.499935	112.820273	38.525287	30.000000	0.000000	113.394626	217.194682	93.720252
3965.860000	112.606145	112.933440	116.623973	112.933440	38.500068	30.000000	0.000000	113.516311	217.366838	94.156694
3965.870000	112.686477	113.061209	116.759158	113.061209	38.514803	30.000000	0.000000	113.613659	217.588182	94.622233
3965.880000	112.686477	113.187762	116.889849	113.187762	38.557913	30.000000	0.000000	113.662333	217.797230	94.913194
3965.890000	112.944524	113.274158	116.989496	113.274158	38.494621	30.000000	0.000000	113.431131	218.055465	95.145964
3965.900000	113.096330	113.314314	117.037101	113.314314	38.453726	30.000000	0.000000	113.139088	218.276809	95.262348
3965.910000	113.219029	113.310663	117.038285	113.310663	38.408420	30.000000	0.000000	112.871381	218.412075	95.436925
3965.920000	113.328527	113.304579	117.036420	113.304579	38.367044	30.000000	0.000000	112.956560	218.584232	95.630899
3965.930000	113.379796	113.288760	117.022149	113.288760	38.343286	30.000000	0.000000	113.029571	218.670310	95.921861
3965.940000	113.402664	113.274158	117.007988	113.274158	38.330138	30.000000	0.000000	113.126919	218.731794	96.280714
3965.950000	113.411890	113.252255	116.985735	113.252255	38.319417	30.000000	0.000000	113.175593	218.719498	96.678361
3965.960000	113.434756	113.212099	116.945177	113.212099	38.297629	30.000000	0.000000	113.114751	218.707201	97.153598
3965.970000	113.453932	113.146389	116.878073	113.146389	38.268528	30.000000	0.000000	112.956560	218.719498	97.667630
3965.980000	113.524644	113.064860	116.796702	113.064860	38.215633	30.000000	0.000000	112.847044	218.830170	98.191361
3965.990000	113.634440	113.001584	116.735754	113.001584	38.154959	30.000000	0.000000	112.798370	218.879357	98.579310
3966.000000	113.798934	112.972379	116.712198	112.972379	38.086274	30.000000	0.000000	112.847044	218.965436	98.879971
3966.010000	114.054055	112.968729	116.718678	112.968729	37.993859	30.000000	0.000000	112.834875	219.125295	99.083644
3966.020000	114.054055	112.961428	116.711135	112.961428	37.991403	30.000000	0.000000	112.883549	219.223671	99.229125
3966.030000	114.180152	112.951693	116.706141	112.951693	37.943087	30.000000	0.000000	112.932223	219.358937	99.413400
3966.040000	114.283215	112.932223	116.690161	112.932223	37.899749	30.000000	0.000000	112.932223	219.469609	99.452195
3966.050000	114.431925	112.905453	116.668465	112.905453	37.837697	30.000000	0.000000	112.907886	219.531093	99.791650
3966.060000	114.431925	112.883549	116.645832	112.883549	37.830357	30.000000	0.000000	112.895718	219.567984	100.111708
3966.070000	114.496764	112.864080	116.628313	112.864080	37.800709	30.000000	0.000000	112.761864	219.580281	100.557849
3966.080000	114.496764	112.850694	116.614482	112.850694	37.796225	30.000000	0.000000	112.713190	219.604875	100.984593
3966.090000	114.664855	112.837309	116.607386	112.837309	37.731827	30.000000	0.000000	112.664516	219.580281	101.421036
3966.100000	114.722525	112.822707	116.594606	112.822707	37.706396	30.000000	0.000000	112.701022	219.617172	101.944767
3966.110000	114.796786	112.816623	116.591292	112.816623	37.677908	30.000000	0.000000	112.774033	219.678656	102.342415
3966.120000	114.896491	112.802020	116.580194	112.802020	37.637525	30.000000	0.000000	112.737527	219.740141	102.749761
3966.130000	115.180278	112.766732	116.555076	112.766732	37.524769	30.000000	0.000000	112.579337	219.875407	103.273492
3966.140000	115.270730	112.711974	116.502093	112.711974	37.474390	30.000000	0.000000	112.384641	219.875407	103.486864
3966.150000	115.383306	112.659649	116.452506	112.659649	37.417000	30.000000	0.000000	112.384641	219.875407	103.486864
3966.160000	115.496531	112.592722	116.387844	112.592722	37.354583	30.000000	0.000000	112.226451	219.998376	103.612948
3966.170000	115.661073	112.539181	116.339059	112.539181	37.278462	30.000000	0.000000	112.226451	220.047563	103.894211
3966.180000	115.715872	112.505109	116.306021	112.505109	37.247751	30.000000	0.000000	112.372473	220.022970	104.156076
3966.190000	115.745083	112.479555	116.280767	112.479555	37.228940	30.000000	0.000000	112.408978	219.998376	104.495532
3966.200000	115.777137	112.467387	116.269464	112.467387	37.213556	30.000000	0.000000	112.579337	220.010673	104.864083
3966.210000	115.799782	112.463736	116.266592	112.463736	37.204326	30.000000	0.000000	112.737527	219.949188	105.281129
3966.220000	115.899589	112.475905	116.283147	112.475905	37.172996	30.000000	0.000000	112.859212	219.961485	105.572091
3966.230000	115.899589	112.519711	116.328436	112.519711	37.187474	30.000000	0.000000	113.017403	220.022970	106.163713
3966.240000	116.034992	112.601240	116.418122	112.601240	37.166413	30.000000	0.000000	113.199930	220.170532	106.493470
3966.250000	116.332022	112.691287	116.523064	112.691287	37.090797	30.000000	0.000000	113.285110	220.330392	106.852323
3966.260000	116.415999	112.808105	116.647204	112.808105	37.099447	30.000000	0.000000	113.394626	220.564033	107.172381
3966.270000	116.661100	112.931006	116.784073	112.931006	37.052831	30.000000	0.000000	113.455468	220.785378	107.502138
3966.280000	116.661100	113.046607	116.903618	113.046607	37.090760	30.000000	0.000000	113.528479	221.043613	107.783401
3966.290000	116.783658	113.164641	117.030580	113.164641	37.085897	30.000000	0.000000	113.589322	221.326442	108.054965
3966.300000	116.896274	113.268074	117.142052	113.268074	37.079712	30.000000	0.000000	113.613659	221.547786	108.307132
3966.310000	116.976864	113.348386	117.228337	113.348386	37.077308	30.000000	0.000000	113.540648	221.781427	108.695082
3966.320000	117.038151	113.406794	117.291199	113.406794	37.074584	30.000000	0.000000	113.443300	221.953584	108.947249
3966.330000	117.108799	113.445734	117.334302	113.445734	37.062144	30.000000	0.000000	113.406794	222.002772	109.315800
3966.340000	117.128111	113.477372	117.367798	113.477372	37.065599	30.000000	0.000000	113.516311	222.162632	109.723147
3966.350000	117.140824	113.519961	117.412358	113.519961	37.074979	30.000000	0.000000	113.711007	222.150335	110.169289
3966.360000	117.140824	113.573503	117.467735	113.573503	37.092465	30.000000	0.000000	113.930040	222.224116	110.634828
3966.370000	117.179452	113.642863	117.541023	113.642863	37.101335	30.000000	0.000000	114.149072	222.285601	111.090668
3966.380000	117.221424	113.713440	117.615706	113.713440	37.109392	30.000000	0.000000	114.234252	222.371679	111.468919
3966.390000	117.353947	113.777933	117.687733	113.777933	37.083112	30.000000	0.000000	114.234252	222.494648	111.885965
3966.400000	117.547762	113.826607	117.745861	113.826607	37.029756	30.000000	0.000000	114.100399	222.642211	112.273914
3966.410000	117.683632	113.889884	117.816773	113.889884	37.001808	30.000000	0.000000	114.173409	222.912743	113.156499
3966.420000	117.748267	113.982364	117.915039	113.982364	37.008753	30.000000	0.000000	114.368105	223.060306	113.573545
3966.430000	117.793571	114.078495	118.016309	114.078495	37.023763	30.000000	0.000000	114.368105	223.060306	113.573545
3966.440000	117.819543	114.201397	118.144498	114.201397	37.054352	30.000000	0.000000	114.745329	223.293947	114.572515
3966.450000	117.874783	114.303612	118.252468	114.303612	37.067724	30.000000	0.000000	114.733160	223.404620	115.038054
3966.460000	117.897470	114.382708	118.335210	114.382708	37.085240	30.000000	0.000000	114.720992	223.490698	115.532690
3966.470000	117.958751	114.432598	118.389296	114.432598	37.079439	30.000000	0.000000	114.647981	223.601370	116.066120
3966.480000	118.010710	114.478839	118.439230	114.478839	37.075782	30.000000	0.000000	114.696655	223.650558	116.492865
3966.490000	118.150352	114.539681	118.507811	114.539681	37.045377	30.000000	0.000000	114.842677	223.736636	116.948706
3966.500000	118.150352	114.638246	118.609791	114.638246	37.077256	30.000000	0.000000	115.086046	223.798121	117.162078
3966.510000	118.211722	114.746546	118.724322	114.746546	37.090226	30.000000	0.000000	115.256405	223.847309	117.404547
3966.520000	118.263589	114.857279	118.840992	114.857279	37.107362	30.000000	0.000000	115.475438	223.933387	117.462739
3966.530000	118.328116	114.966795	118.956918	114.966795	37.119514	30.000000	0.000000	115.463270	223.982575	117.482137
3966.540000	118.390004	115.032505	119.027415	115.032505	37.118441	30.000000	0.000000	115.402427	224.031762	117.579124
3966.550000	118.454633	115.095781	119.095506	115.095781	37.115573	30.000000	0.000000	115.365922	223.994872	117.656714
3966.560000	118.487257	115.168792	119.172376	115.168792	37.127357	30.000000	0.000000	115.451101	223.994872	117.676111
3966.570000	118.509839	115.246671	119.253878	115.246671	37.144317	30.000000	0.000000	115.426764	223.957981	117.637316
3966.580000	118.532543	115.320898	119.331608	115.320898	37.160047	30.000000	0.000000	115.438933	223.822715	117.559727
3966.590000	118.532543	115.381741	119.394566	115.381741	37.179652	30.000000	0.000000	115.451101	223.724339	117.802195
3966.600000	118.555123	115.414596	119.429481	115.414596	37.182083	30.000000	0.000000	115.414596	223.650558	117.986471
3966.610000	118.574468	115.431632	119.447895	115.431632	37.180584	30.000000	0.000000	115.426764	223.429214	118.170747
3966.620000	118.597044	115.414596	119.431183	115.414596	37.166943	30.000000	0.000000	115.305079	223.355432	118.364722
3966.630000	118.648881	115.387825	119.405585	115.387825	37.139607	30.000000	0.000000	115.195563	223.134088	118.578094
3966.640000	118.719575	115.368356	119.388306	115.368356	37.107825	30.000000	0.000000	115.207731	222.998822	118.713877
3966.650000	118.790901	115.381741	119.405052	115.381741	37.086388	30.000000	0.000000	115.499775	222.691399	118.713877
3966.660000	118.855378	115.410945	119.437891	115.410945	37.072502	30.000000	0.000000	115.743145	222.556133	118.345325
3966.670000	118.949267	115.442583	119.474443	115.442583	37.048774	30.000000	0.000000	115.743145	222.556133	118.345325
3966.680000	118.949267	115.500992	119.534892	115.500992	37.067519	30.000000	0.000000	116.023021	222.396273	117.840990
3966.690000	119.078976	115.611725	119.654763	115.611725	37.056178	30.000000	0.000000	116.558434	222.051959	116.686840
3966.700000	119.101522	115.744362	119.792955	115.744362	37.090535	30.000000	0.000000	116.740962	221.941287	116.182505
3966.710000	119.121051	115.881866	119.936064	115.881866	37.127526	30.000000	0.000000	116.801804	221.744537	115.639376
3966.720000	119.124240	116.030322	120.089843	116.030322	37.173933	30.000000	0.000000	116.789636	221.498598	115.173836
3966.730000	119.124415	116.181211	120.246019	116.181211	37.222212	30.000000	0.000000	116.704456	221.252660	114.873176
3966.740000	119.114966	116.318715	120.387947	116.318715	37.269700	30.000000	0.000000	116.582771	221.019019	114.504624
3966.750000	119.114966	116.414846	120.487441	116.414846	37.300502	30.000000	0.000000	116.461086	220.809972	114.077879
3966.760000	119.124415	116.468387	120.543243	116.468387	37.314218	30.000000	0.000000	116.278559	220.490252	113.408666
3966.770000	119.124415	116.484207	120.559615	116.484207	37.319286	30.000000	0.000000	115.901336	220.170532	113.011018
3966.780000	119.124415	116.427015	120.500422	116.427015	37.300962	30.000000	0.000000	115.451101	219.863110	112.603671
3966.790000	119.124415	116.280993	120.349291	116.280993	37.254180	30.000000	0.000000	115.098215	219.494203	112.312709
3966.800000	119.124415	116.094815	120.156600	116.094815	37.194532	30.000000	0.000000	114.879182	219.125295	112.070241
3966.810000	119.124415	115.885517	119.939979	115.885517	37.127477	30.000000	0.000000	114.708823	218.719498	111.866567
3966.820000	119.114507	115.661616	119.707842	115.661616	37.059325	30.000000	0.000000	114.550633	218.325997	111.575605
3966.830000	119.114332	115.446234	119.484918	115.446234	36.990377	30.000000	0.000000	114.550633	217.957090	111.342836
3966.840000	119.114332	115.241803	119.273336	115.241803	36.924875	30.000000	0.000000	114.538464	217.551292	111.100367
3966.850000	119.114332	115.055625	119.080645	115.055625	36.865222	30.000000	0.000000	114.599307	217.206978	110.906393
3966.860000	119.114332	114.879182	118.898029	114.879182	36.808687	30.000000	0.000000	114.514127	216.838071	110.838501
3966.870000	119.133688	114.725859	118.740123	114.725859	36.752621	30.000000	0.000000	114.368105	216.493758	110.877296
3966.880000	119.133688	114.601740	118.611661	114.601740	36.712859	30.000000	0.000000	114.209915	216.112554	110.954886
3966.890000	119.156410	114.499525	118.506783	114.499525	36.671984	30.000000	0.000000	114.076062	215.731350	111.042175
3966.900000	119.221034	114.404611	118.411144	114.404611	36.618482	30.000000	0.000000	113.930040	215.300959	111.304041
3966.910000	119.221034	114.316998	118.320463	114.316998	36.590439	30.000000	0.000000	113.832692	214.919755	111.643496
3966.920000	119.286109	114.222083	118.224836	114.222083	36.536836	30.000000	0.000000	113.601490	214.575442	112.157529
3966.930000	119.318547	114.108916	118.109003	114.108916	36.489074	30.000000	0.000000	113.418963	214.268020	112.758851
3966.940000	119.493034	113.975063	117.977440	113.975063	36.384160	30.000000	0.000000	113.199930	213.997488	113.379570
3966.950000	119.622283	113.814439	117.816339	113.814439	36.286958	30.000000	0.000000	112.993066	213.849925	113.913001
3966.960000	119.777193	113.636779	117.638609	113.636779	36.175375	30.000000	0.000000	112.737527	213.788441	114.785887
3966.970000	119.777193	113.432348	117.426979	113.432348	36.110296	30.000000	0.000000	112.323799	213.813034	115.484196
3966.980000	120.022590	113.188978	117.184780	113.188978	35.946172	30.000000	0.000000	111.776217	213.813034	116.095217
3966.990000	120.132738	112.898151	116.888046	112.898151	35.815035	30.000000	0.000000	111.167792	213.899113	116.706237
3967.000000	120.255235	112.562301	116.545159	112.562301	35.665508	30.000000	0.000000	110.571536	213.923706	117.259066
3967.010000	120.319565	112.169259	116.140738	112.169259	35.518483	30.000000	0.000000	109.902269	213.960597	117.753701
3967.020000	120.371578	111.742145	115.700538	111.742145	35.365125	30.000000	0.000000	109.330350	213.948300	118.141651
3967.030000	120.404205	111.277309	115.220507	111.277309	35.206696	30.000000	0.000000	108.770600	213.899113	118.345325
3967.040000	120.404205	110.784485	114.710219	110.784485	35.050773	30.000000	0.000000	108.271692	213.800738	118.558697
3967.050000	120.407558	110.274625	114.182422	110.274625	34.888308	30.000000	0.000000	107.894468	213.665472	118.636287
3967.060000	120.410637	109.740428	113.629413	109.740428	34.718248	30.000000	0.000000	107.395560	213.296565	118.907852
3967.070000	120.410637	109.214750	113.085105	109.214750	34.551941	30.000000	0.000000	107.067011	213.075221	118.907852
3967.080000	120.410637	108.743829	112.597496	108.743829	34.402957	30.000000	0.000000	107.067011	213.075221	118.907852
3967.090000	120.420137	108.313065	112.151827	108.313065	34.263471	30.000000	0.000000	106.860147	212.792392	118.839961
3967.100000	120.420137	107.955311	111.781394	107.955311	34.150300	30.000000	0.000000	106.994000	212.177547	118.665383
3967.110000	120.439524	107.698556	111.516270	107.698556	34.062574	30.000000	0.000000	107.334718	211.857828	118.500505
3967.120000	120.439524	107.540365	111.352473	107.540365	34.012542	30.000000	0.000000	107.748447	211.513515	118.287132
3967.130000	120.471488	107.494125	111.305797	107.494125	33.987213	30.000000	0.000000	108.308197	211.181499	117.821593
3967.140000	120.513336	107.563486	111.379193	107.563486	33.995121	30.000000	0.000000	108.965295	210.923265	117.550028
3967.150000	120.574860	107.749663	111.574297	107.749663	34.033313	30.000000	0.000000	109.756247	210.714217	117.045693
3967.160000	120.649338	108.066044	111.904726	108.066044	34.108178	30.000000	0.000000	110.559368	210.492873	116.551057
3967.170000	120.713930	108.495592	112.351985	108.495592	34.221931	30.000000	0.000000	111.362488	210.357608	115.881844
3967.180000	120.972411	109.010319	112.894868	109.010319	34.296583	30.000000	0.000000	112.214282	210.197748	115.154439
3967.190000	120.972411	109.630912	113.537575	109.630912	34.491833	30.000000	0.000000	113.066077	210.087076	114.427034
3967.200000	121.085344	110.328166	114.264034	110.328166	34.672436	30.000000	0.000000	113.966545	210.000998	113.651135
3967.210000	121.169328	111.075312	115.041096	111.075312	34.878222	30.000000	0.000000	114.806171	209.939513	112.846140
3967.220000	121.230552	111.860179	115.856381	111.860179	35.103375	30.000000	0.000000	115.597123	209.804248	112.089638
3967.230000	121.291775	112.675468	116.703207	112.675468	35.337774	30.000000	0.000000	116.461086	209.656685	111.362233
3967.240000	121.343462	113.510227	117.569856	113.510227	35.581334	30.000000	0.000000	117.312881	209.435341	110.799706
3967.250000	121.372403	114.352287	118.443189	114.352287	35.835000	30.000000	0.000000	118.176844	209.361560	110.334167
3967.260000	121.411222	115.191913	119.314415	115.191913	36.084216	30.000000	0.000000	118.955628	209.177106	109.732846
3967.270000	121.472445	116.007202	120.161363	116.007202	36.317532	30.000000	0.000000	119.515379	209.004950	109.131524
3967.280000	121.472445	116.775034	120.956691	116.775034	36.557912	30.000000	0.000000	119.892602	208.771309	108.704780
3967.290000	121.533667	117.469855	121.678906	117.469855	36.753084	30.000000	0.000000	120.014287	208.611449	108.510806
3967.300000	121.659454	118.077063	122.313059	118.077063	36.896914	30.000000	0.000000	120.038624	208.414699	108.375023
3967.310000	121.659454	118.575971	122.829866	118.575971	37.052814	30.000000	0.000000	119.795254	208.217949	108.345927
3967.320000	121.701254	118.955628	123.224880	118.955628	37.156003	30.000000	0.000000	119.393694	207.910527	108.384722
3967.330000	121.730215	119.209950	123.489534	119.209950	37.224716	30.000000	0.000000	119.004302	207.639995	108.442914
3967.340000	121.752982	119.346237	123.631663	119.346237	37.258834	30.000000	0.000000	118.675753	207.295683	108.501107
3967.350000	121.752982	119.362056	123.648050	119.362056	37.263773	30.000000	0.000000	118.335035	206.951370	108.685383
3967.360000	121.752982	119.269575	123.552249	119.269575	37.234901	30.000000	0.000000	118.030822	206.582463	109.005441
3967.370000	121.765816	119.078530	123.354877	119.078530	37.170512	30.000000	0.000000	117.604925	206.152072	109.500076
3967.380000	121.775363	118.812040	123.079213	118.812040	37.083804	30.000000	0.000000	117.227702	205.783166	110.082000
3967.390000	121.814198	118.471322	122.727864	118.471322	36.963169	30.000000	0.000000	116.607108	205.451150	110.799706
3967.400000	121.814198	118.072195	122.314397	118.072195	36.838641	30.000000	0.000000	116.047358	205.156025	111.585304
3967.410000	122.088336	117.637780	121.875630	117.637780	36.602986	30.000000	0.000000	115.451101	204.885494	112.419395
3967.420000	122.278902	117.110884	121.337538	117.110884	36.369795	30.000000	0.000000	114.124736	204.578072	113.971193
3967.430000	122.401312	116.543832	120.754995	116.543832	36.149443	30.000000	0.000000	113.333783	204.516587	114.795586
3967.440000	122.511688	116.009635	120.205960	116.009635	35.944041	30.000000	0.000000	113.333783	204.516587	114.795586
3967.450000	122.553455	115.421897	119.598642	115.421897	35.746992	30.000000	0.000000	112.457652	204.455103	115.678171
3967.460000	122.675858	114.675968	118.830612	114.675968	35.472463	30.000000	0.000000	110.571536	204.282947	117.346354
3967.470000	122.675858	113.882583	118.008483	113.882583	35.227047	30.000000	0.000000	109.671068	204.159978	118.180446
3967.480000	122.714741	113.045390	117.142491	113.045390	34.954457	30.000000	0.000000	108.855779	204.024712	119.121224
3967.490000	122.727195	112.189946	116.256529	112.189946	34.685618	30.000000	0.000000	108.052659	203.803368	119.897124
3967.500000	122.747097	111.316248	115.351934	111.316248	34.408633	30.000000	0.000000	107.310381	203.569728	120.692421
3967.510000	122.749968	110.440117	114.444150	110.440117	34.136832	30.000000	0.000000	106.689788	203.385274	121.332538
3967.520000	122.759550	109.635779	113.611017	109.635779	33.884958	30.000000	0.000000	106.081364	203.090149	121.759283
3967.530000	122.788576	108.856996	112.805097	108.856996	33.634470	30.000000	0.000000	105.545951	202.782727	122.156931
3967.540000	122.820748	108.041707	111.961449	108.041707	33.371794	30.000000	0.000000	105.180896	202.463009	122.467291
3967.550000	122.862499	107.276309	111.169843	107.276309	33.121503	30.000000	0.000000	104.803673	202.192477	122.632170
3967.560000	122.894859	106.693439	110.567020	106.693439	32.930846	30.000000	0.000000	104.742831	201.823571	122.816446
3967.570000	122.936607	106.189664	110.046498	106.189664	32.761624	30.000000	0.000000	104.633314	201.479258	122.923132
3967.580000	122.959386	105.766200	109.608494	105.766200	32.623516	30.000000	0.000000	104.621146	201.110352	122.903735
3967.590000	123.001130	105.432784	109.264497	105.432784	32.507043	30.000000	0.000000	104.718494	200.778337	122.961927
3967.600000	123.043356	105.195498	109.020135	105.195498	32.420127	30.000000	0.000000	104.937526	200.458618	122.952229
3967.610000	123.104544	105.048259	108.869780	105.048259	32.354847	30.000000	0.000000	105.217401	200.102009	123.223794
3967.620000	123.185178	104.998369	108.821021	104.998369	32.313270	30.000000	0.000000	105.582456	199.868368	123.592346
3967.630000	123.285521	105.049476	108.877658	105.049476	32.296372	30.000000	0.000000	106.057027	199.647024	123.980296
3967.640000	123.356302	105.186980	109.022763	105.186980	32.315607	30.000000	0.000000	106.555935	199.499462	124.465233
3967.650000	123.485703	105.413314	109.262095	105.413314	32.342939	30.000000	0.000000	107.067011	199.474868	124.921075
3967.660000	123.927604	105.694406	109.569685	105.694406	32.284778	30.000000	0.000000	107.553751	199.585540	125.299326
3967.670000	124.085590	106.035124	109.928714	106.035124	32.337094	30.000000	0.000000	108.040490	199.757696	125.726071
3967.680000	124.085590	106.423298	110.331142	106.423298	32.455474	30.000000	0.000000	108.502893	200.040524	125.823059
3967.690000	124.359692	106.849195	110.782846	106.849195	32.494917	30.000000	0.000000	108.977464	200.421727	125.823059
3967.700000	124.636561	107.305514	111.266271	107.305514	32.542007	30.000000	0.000000	109.500709	200.778337	125.745469
3967.710000	124.724186	107.780085	111.761635	107.780085	32.656795	30.000000	0.000000	109.963112	201.036571	125.774565
3967.720000	124.724186	108.276559	112.276449	108.276559	32.807224	30.000000	0.000000	110.547199	201.319399	125.958841
3967.730000	124.765648	108.786419	112.806708	108.786419	32.947797	30.000000	0.000000	111.155624	201.553040	126.307996
3967.740000	124.788422	109.344952	113.386746	109.344952	33.109278	30.000000	0.000000	112.141271	201.872759	127.268173
3967.750000	124.836647	109.888884	113.952621	109.888884	33.257637	30.000000	0.000000	112.506326	201.995727	127.821002
3967.760000	124.898422	110.384141	114.468557	110.384141	33.386500	30.000000	0.000000	112.506326	201.995727	127.821002
3967.770000	124.975373	110.862363	114.967430	110.862363	33.504841	30.000000	0.000000	112.822707	202.094102	128.451421
3967.780000	124.975373	111.301645	115.422979	111.301645	33.637601	30.000000	0.000000	112.895718	202.266259	129.159430
3967.790000	125.185516	111.719025	115.863947	111.719025	33.691389	30.000000	0.000000	113.151256	202.327743	130.342678
3967.800000	125.276646	112.102332	116.265014	112.102332	33.775512	30.000000	0.000000	113.333783	202.438415	130.992495
3967.810000	125.357288	112.458869	116.637931	112.458869	33.855000	30.000000	0.000000	113.528479	202.499899	131.719902
3967.820000	125.376792	112.769165	116.960520	112.769165	33.941639	30.000000	0.000000	113.650164	202.512196	132.369719
3967.830000	125.527568	113.030788	117.237766	113.030788	33.967906	30.000000	0.000000	113.771849	202.524493	133.009837
3967.840000	125.627541	113.195063	117.412071	113.195063	33.982439	30.000000	0.000000	113.784018	202.573680	133.679051
3967.850000	125.677078	113.328916	117.552854	113.328916	34.005345	30.000000	0.000000	113.844860	202.573680	134.348266
3967.860000	125.747884	113.463986	117.695738	113.463986	34.021151	30.000000	0.000000	113.857029	202.659759	135.056276
3967.870000	125.809013	113.557684	117.795331	113.557684	34.027887	30.000000	0.000000	113.759681	202.659759	135.657599
3967.880000	125.880668	113.629478	117.872620	113.629478	34.024352	30.000000	0.000000	113.613659	202.696649	136.297718
3967.890000	125.964582	113.661116	117.908738	113.661116	34.004490	30.000000	0.000000	113.467637	202.635165	136.802054
3967.900000	126.028976	113.648947	117.898645	113.648947	33.978344	30.000000	0.000000	113.212099	202.610571	137.364582
3967.910000	126.090803	113.588105	117.837955	113.588105	33.938559	30.000000	0.000000	112.920055	202.573680	138.033797
3967.920000	126.134959	113.479805	117.727335	113.479805	33.890796	30.000000	0.000000	112.567168	202.450712	138.761205
3967.930000	126.164881	113.328916	117.571970	113.328916	33.835308	30.000000	0.000000	112.262956	202.278555	139.527407
3967.940000	126.206473	113.142738	117.380448	113.142738	33.765258	30.000000	0.000000	111.922238	202.118696	140.322707
3967.950000	126.225991	112.907886	117.137561	112.907886	33.688397	30.000000	0.000000	111.496341	202.008024	141.059813
3967.960000	126.287097	112.632878	116.854629	112.632878	33.585190	30.000000	0.000000	111.106950	201.835868	141.903606
3967.970000	126.348198	112.322582	116.535073	112.322582	33.471575	30.000000	0.000000	110.656715	201.626821	142.456437
3967.980000	126.426282	111.986731	116.189648	111.986731	33.344627	30.000000	0.000000	110.255155	201.331696	143.183845
3967.990000	126.500349	111.624110	115.816273	111.624110	33.211257	30.000000	0.000000	109.841427	201.245618	143.911253
3968.000000	126.561443	111.244454	115.424704	111.244454	33.077424	30.000000	0.000000	109.415530	201.024274	144.590167
3968.010000	126.613588	110.855062	115.022676	110.855062	32.943890	30.000000	0.000000	109.026138	200.852118	145.317576
3968.020000	126.655152	110.460803	114.615180	110.460803	32.812626	30.000000	0.000000	108.624578	200.606180	145.967394
3968.030000	126.707176	110.055592	114.196706	110.055592	32.674678	30.000000	0.000000	108.210849	200.372540	146.626911
3968.040000	126.775579	109.649165	113.777574	109.649165	32.530988	30.000000	0.000000	107.857963	200.151196	147.354319
3968.050000	126.836663	109.253689	113.369511	109.253689	32.393173	30.000000	0.000000	107.541582	199.954446	148.072029
3968.060000	126.898519	108.866731	112.970299	108.866731	32.257774	30.000000	0.000000	107.237370	199.745399	148.673354
3968.070000	126.969309	108.494375	112.586558	108.494375	32.123876	30.000000	0.000000	106.933158	199.511759	149.391064
3968.080000	126.969309	108.134188	112.212785	108.134188	32.017229	30.000000	0.000000	106.653283	199.265821	150.011786
3968.090000	127.088983	107.789820	111.859877	107.789820	31.875692	30.000000	0.000000	106.397745	199.081368	150.710099
3968.100000	127.150055	107.460053	111.519922	107.460053	31.758044	30.000000	0.000000	106.117869	198.946103	151.379315
3968.110000	127.189124	107.107167	111.155147	107.107167	31.640920	30.000000	0.000000	105.497277	198.552603	152.601362
3968.120000	127.272989	106.788353	110.827371	106.788353	31.519276	30.000000	0.000000	105.436434	198.343556	153.202687
3968.130000	127.334861	106.510912	110.541707	106.510912	31.417183	30.000000	0.000000	105.436434	198.343556	153.202687
3968.140000	127.395922	106.274843	110.298941	106.274843	31.327658	30.000000	0.000000	105.497277	198.159103	153.852506
3968.150000	127.469965	106.094749	110.114735	106.094749	31.250494	30.000000	0.000000	105.740646	197.913166	155.045458
3968.160000	127.528581	105.960896	109.977950	105.960896	31.192033	30.000000	0.000000	105.898837	197.679525	155.637084
3968.170000	127.631974	105.889102	109.907205	105.889102	31.137354	30.000000	0.000000	106.215217	197.667228	156.131723
3968.180000	127.751647	105.887885	109.910306	105.887885	31.098181	30.000000	0.000000	106.641114	197.654931	156.703952
3968.190000	127.964897	105.957245	109.990080	105.957245	31.049366	30.000000	0.000000	107.091348	197.667228	157.208289
3968.200000	128.085440	106.116653	110.159956	106.116653	31.056927	30.000000	0.000000	107.711941	197.679525	157.615639
3968.210000	128.227047	106.396528	110.455678	106.396528	31.092737	30.000000	0.000000	108.296029	197.667228	158.042386
3968.220000	128.328057	106.753064	110.829525	106.753064	31.163944	30.000000	0.000000	109.001801	197.790197	158.527326
3968.230000	128.479399	107.180178	111.278525	107.180178	31.239026	30.000000	0.000000	109.707573	197.913166	159.021964
3968.240000	128.599984	107.670568	111.792129	107.670568	31.342265	30.000000	0.000000	110.401177	198.085322	159.351724
3968.250000	128.721994	108.207199	112.353838	108.207199	31.458126	30.000000	0.000000	111.106950	198.220587	159.836664
3968.260000	128.823033	108.794937	112.967875	108.794937	31.595407	30.000000	0.000000	111.776217	198.343556	160.273110
3968.270000	128.942715	109.415530	113.616768	109.415530	31.735634	30.000000	0.000000	112.421147	198.552603	160.719255
3968.280000	129.043771	110.049508	114.278908	110.049508	31.885555	30.000000	0.000000	112.980897	198.786243	161.184797
3968.290000	129.094967	110.682269	114.937932	110.682269	32.051589	30.000000	0.000000	113.418963	198.958400	161.582448
3968.300000	129.156898	111.291911	115.573380	111.291911	32.207088	30.000000	0.000000	113.808355	199.056775	162.028593
3968.310000	129.301652	111.878432	116.188022	111.878432	32.327394	30.000000	0.000000	114.161241	199.142853	162.494136
3968.320000	129.340787	112.416279	116.748096	112.416279	32.469381	30.000000	0.000000	114.380274	199.216634	163.017871
3968.330000	129.373367	112.910320	117.262436	112.910320	32.600851	30.000000	0.000000	114.647981	199.265821	163.599800
3968.340000	129.392936	113.350819	117.720676	113.350819	32.721270	30.000000	0.000000	114.806171	199.253524	164.142933
3968.350000	129.414766	113.725609	118.110766	113.725609	32.821887	30.000000	0.000000	114.854845	199.081368	164.792753
3968.360000	129.476702	114.029821	118.429130	114.029821	32.888139	30.000000	0.000000	114.818340	199.044478	165.481369
3968.370000	129.515841	114.252505	118.661938	114.252505	32.938725	30.000000	0.000000	114.647981	198.970696	166.160286
3968.380000	129.515841	114.386358	118.800958	114.386358	32.977315	30.000000	0.000000	114.319431	198.872321	166.868299
3968.390000	129.628958	114.453285	118.874906	114.453285	32.957126	30.000000	0.000000	114.088230	198.675572	167.547216
3968.400000	129.651760	114.448417	118.870745	114.448417	32.947767	30.000000	0.000000	113.759681	198.466525	168.216434
3968.410000	129.651760	114.381491	118.801233	114.381491	32.928500	30.000000	0.000000	113.491974	198.294369	168.992339
3968.420000	129.690903	114.259806	118.676379	114.259806	32.879832	30.000000	0.000000	113.163425	198.122212	169.690654
3968.430000	129.783446	114.076062	118.489151	114.076062	32.794774	30.000000	0.000000	112.810538	197.900869	170.253186
3968.440000	129.843167	113.844860	118.251335	113.844860	32.707584	30.000000	0.000000	112.494158	197.654931	171.048489
3968.450000	129.945474	113.568635	117.968399	113.568635	32.592817	30.000000	0.000000	112.092597	197.433588	171.669213
3968.460000	129.945474	113.254688	117.642290	113.254688	32.502718	30.000000	0.000000	111.678869	197.175353	172.396625
3968.470000	129.975840	112.920055	117.295867	112.920055	32.396235	30.000000	0.000000	111.301645	197.003197	173.153133
3968.480000	130.056349	112.570819	116.936202	112.570819	32.268430	30.000000	0.000000	110.827074	196.769557	173.812653
3968.490000	130.117276	112.203331	116.556804	112.203331	32.142266	30.000000	0.000000	110.413346	196.486729	174.510969
3968.500000	130.117276	111.830975	116.170000	111.830975	32.035599	30.000000	0.000000	110.036122	196.203901	175.218983
3968.510000	130.179226	111.444017	115.770392	111.444017	31.903722	30.000000	0.000000	109.622394	196.007151	175.936696
3968.520000	130.250984	111.009602	115.321840	111.009602	31.755102	30.000000	0.000000	108.819274	195.502980	177.139351
3968.530000	130.280335	110.573970	114.870397	110.573970	31.620605	30.000000	0.000000	108.454219	195.183261	177.682486
3968.540000	130.351058	110.169976	114.453372	110.169976	31.481355	30.000000	0.000000	108.454219	195.183261	177.682486
3968.550000	130.413016	109.770849	114.041055	109.770849	31.346600	30.000000	0.000000	108.101333	194.925027	178.245018
3968.560000	130.503314	109.342519	113.599440	109.342519	31.194235	30.000000	0.000000	107.395560	194.470043	179.564060
3968.570000	130.565276	108.904453	113.146628	108.904453	31.048726	30.000000	0.000000	106.920989	194.199512	180.281774
3968.580000	130.604440	108.468821	112.695480	108.468821	30.911603	30.000000	0.000000	106.470755	193.916684	181.038283
3968.590000	130.665339	108.050225	112.262824	108.050225	30.772292	30.000000	0.000000	106.227386	193.621559	181.639611
3968.600000	130.705575	107.653532	111.852146	107.653532	30.646140	30.000000	0.000000	106.069195	193.400216	182.328229
3968.610000	130.786055	107.289695	111.477071	107.289695	30.516303	30.000000	0.000000	105.984016	193.215763	182.725881
3968.620000	130.838203	107.004952	111.183123	107.004952	30.418345	30.000000	0.000000	105.971848	193.019013	183.007148
3968.630000	130.918672	106.770100	110.942038	106.770100	30.325461	30.000000	0.000000	106.105701	192.920638	182.173047
3968.640000	131.012171	106.566887	110.734289	106.566887	30.237454	30.000000	0.000000	106.422082	192.748482	179.758036
3968.650000	131.093727	106.452503	110.618399	106.452503	30.178613	30.000000	0.000000	106.957495	192.662404	175.209284
3968.660000	131.123142	106.479273	110.647287	106.479273	30.176684	30.000000	0.000000	107.663267	192.391873	168.400712
3968.670000	131.093795	106.631380	110.804278	106.631380	30.229301	30.000000	0.000000	108.442050	191.924593	159.788170
3968.680000	131.054621	106.955061	111.139195	106.955061	30.333796	30.000000	0.000000	109.707573	191.063812	149.905099
3968.690000	130.827305	107.478306	111.674560	107.478306	30.556468	30.000000	0.000000	111.459836	189.711158	139.362528
3968.700000	129.415845	108.248572	112.422579	108.248572	31.240825	30.000000	0.000000	113.771849	187.743661	128.781178
3968.710000	128.955848	109.298712	113.495958	109.298712	31.697368	30.000000	0.000000	116.485423	185.198213	118.684781
3968.720000	127.475919	110.644548	114.837155	110.644548	32.588630	30.000000	0.000000	119.430200	182.062517	109.189717
3968.730000	127.475919	112.267825	116.521942	112.267825	33.066741	30.000000	0.000000	122.338471	178.570214	100.567548
3968.740000	126.079518	114.149074	118.419467	114.149074	34.110130	30.000000	0.000000	125.234574	174.942647	92.692188
3968.750000	125.553129	116.271260	120.599876	116.271260	34.932580	30.000000	0.000000	128.179353	171.241300	85.563635
3968.760000	124.896010	118.596660	122.984854	118.596660	35.871318	30.000000	0.000000	130.917267	167.724408	79.017008
3968.770000	124.896010	121.080250	125.560340	121.080250	36.622517	30.000000	0.000000	133.277958	164.625608	73.023210
3968.780000	125.154605	123.622250	128.207474	123.622250	37.292849	30.000000	0.000000	135.127572	161.944902	67.446459
3968.790000	125.487425	126.128962	130.821698	126.128962	37.919746	30.000000	0.000000	136.526951	159.719178	62.267357
3968.800000	125.697938	128.504254	133.294726	128.504254	38.550590	30.000000	0.000000	137.524769	158.083702	57.369518
3968.810000	126.355913	130.666597	135.567402	130.666597	38.934904	30.000000	0.000000	138.108858	156.866318	53.043903
3968.820000	127.191334	132.563668	137.573844	132.563668	39.160220	30.000000	0.000000	138.400903	156.091619	49.086838
3968.830000	127.633591	134.171128	139.262505	134.171128	39.453197	30.000000	0.000000	138.413071	155.538262	45.527421
3968.840000	127.855885	135.473158	140.624313	135.473158	39.743827	30.000000	0.000000	138.254880	154.751267	39.562731
3968.850000	127.988091	136.464892	141.659966	136.464892	39.979539	30.000000	0.000000	138.096690	154.370066	37.108965
3968.860000	127.986981	137.191352	142.414029	137.191352	40.192833	30.000000	0.000000	138.181869	153.988864	35.062543
3968.870000	127.916139	137.684177	142.922258	137.684177	40.367074	30.000000	0.000000	138.206206	153.496992	33.374973
3968.880000	127.819354	137.992040	143.237237	137.992040	40.498228	30.000000	0.000000	138.206206	152.968230	31.958965
3968.890000	127.764959	138.166050	143.415273	138.166050	40.572313	30.000000	0.000000	138.267049	152.390280	30.853316
3968.900000	127.641716	138.250013	143.496558	138.250013	40.649157	30.000000	0.000000	138.364397	151.824627	29.893147
3968.910000	127.641716	138.284085	143.531923	138.284085	40.659175	30.000000	0.000000	138.449577	151.185193	29.253034
3968.920000	127.591096	138.295036	143.540879	138.295036	40.683842	30.000000	0.000000	138.510419	150.631837	28.671113
3968.930000	127.591096	138.308422	143.554772	138.308422	40.687780	30.000000	0.000000	138.546925	150.016997	28.283166
3968.940000	127.600906	138.344927	143.593130	138.344927	40.694361	30.000000	0.000000	138.619936	149.389860	28.031000
3968.950000	127.609727	138.397252	143.647860	138.397252	40.706013	30.000000	0.000000	138.619936	148.799613	27.914616
3968.960000	127.607252	138.444709	143.697000	138.444709	40.721021	30.000000	0.000000	138.656441	148.147883	27.943712
3968.970000	127.607252	138.488516	143.742468	138.488516	40.733906	30.000000	0.000000	138.644273	147.471559	28.021302
3968.980000	127.607252	138.528672	143.784148	138.528672	40.745717	30.000000	0.000000	138.607767	146.905906	28.118288
3968.990000	127.603016	138.557876	143.814258	138.557876	40.756105	30.000000	0.000000	138.559093	146.241879	28.486838
3969.000000	127.642048	138.572479	143.831277	138.572479	40.743830	30.000000	0.000000	138.510419	145.713117	28.768100
3969.010000	127.652637	138.573696	143.833046	138.573696	40.739693	30.000000	0.000000	138.461745	145.073683	29.243335
3969.020000	127.685320	138.562744	143.823238	138.562744	40.722600	30.000000	0.000000	138.400903	144.508031	29.640981
3969.030000	127.729285	138.534756	143.796285	138.534756	40.695719	30.000000	0.000000	138.267049	144.003862	30.251998
3969.040000	127.791190	138.481215	143.743662	138.481215	40.653736	30.000000	0.000000	138.084521	143.438209	30.872713
3969.050000	127.846395	138.419155	143.681875	138.419155	40.612118	30.000000	0.000000	137.999342	142.958634	31.425538
3969.060000	127.846395	138.332759	143.592194	138.332759	40.586769	30.000000	0.000000	137.792477	142.466763	32.123843
3969.070000	127.911330	138.226893	143.485392	138.226893	40.528226	30.000000	0.000000	137.585612	142.024078	32.686366
3969.080000	127.959287	138.100340	143.356305	138.100340	40.470846	30.000000	0.000000	137.342242	141.569097	33.404069
3969.090000	128.085347	137.955535	143.211973	137.955535	40.375181	30.000000	0.000000	137.111040	141.101819	33.956893
3969.100000	128.085347	137.783959	143.033859	137.783959	40.324967	30.000000	0.000000	136.794658	140.806696	34.664897
3969.110000	128.156155	137.594130	142.840149	137.594130	40.239596	30.000000	0.000000	136.563457	140.462385	35.305010
3969.120000	128.218148	137.379964	142.620747	137.379964	40.150906	30.000000	0.000000	136.259244	140.167263	35.974219
3969.130000	128.280065	137.153630	142.388699	137.153630	40.058779	30.000000	0.000000	136.003705	139.847546	36.730716
3969.140000	128.351786	136.905392	142.134363	136.905392	39.956242	30.000000	0.000000	135.602144	139.601610	37.322336
3969.150000	128.409449	136.635251	141.856613	136.635251	39.853306	30.000000	0.000000	135.297931	139.367971	38.175820
3969.160000	128.503800	136.352941	141.567938	136.352941	39.731626	30.000000	0.000000	134.969381	139.097442	38.883823
3969.170000	128.541935	136.060897	141.266507	136.060897	39.630665	30.000000	0.000000	134.665168	138.863803	39.494840
3969.180000	128.541935	135.754250	140.948129	135.754250	39.541348	30.000000	0.000000	134.275776	138.568680	40.445311
3969.190000	128.610290	135.439086	140.624088	135.439086	39.421249	30.000000	0.000000	133.959395	138.322744	41.172712
3969.200000	128.667966	135.087416	140.261632	135.087416	39.295078	30.000000	0.000000	133.277958	137.941544	42.714803
3969.210000	128.736388	134.718710	139.881970	134.718710	39.159658	30.000000	0.000000	132.876397	137.695608	43.393711
3969.220000	128.847206	134.380425	139.535836	134.380425	39.015828	30.000000	0.000000	132.876397	137.695608	43.393711
3969.230000	128.847206	134.036056	139.178255	134.036056	38.915845	30.000000	0.000000	132.560016	137.474266	44.189003
3969.240000	128.898430	133.694121	138.825554	133.694121	38.795648	30.000000	0.000000	132.182792	137.252923	44.974596
3969.250000	128.988733	133.315680	138.436722	133.315680	38.649062	30.000000	0.000000	131.513524	136.797942	46.565180
3969.260000	129.037582	132.936023	138.044710	132.936023	38.519167	30.000000	0.000000	131.172806	136.588897	47.166499
3969.270000	129.073385	132.552715	137.648300	132.552715	38.393610	30.000000	0.000000	130.832087	136.342961	48.010284
3969.280000	129.102725	132.173057	137.255379	132.173057	38.271803	30.000000	0.000000	130.479201	136.158509	48.718288
3969.290000	129.210248	131.787315	136.859668	131.787315	38.116852	30.000000	0.000000	130.101977	135.949464	49.435991
3969.300000	129.210248	131.438079	136.496990	131.438079	38.015842	30.000000	0.000000	129.785596	135.715825	50.211886
3969.310000	129.261446	131.087626	136.135351	131.087626	37.893996	30.000000	0.000000	129.371866	135.531373	50.968384
3969.320000	129.310341	130.705535	135.740740	130.705535	37.764041	30.000000	0.000000	129.055485	135.310031	51.773375
3969.330000	129.429961	130.318576	135.344222	130.318576	37.604675	30.000000	0.000000	128.690430	135.137876	52.423187
3969.340000	129.490909	129.934051	134.947584	129.934051	37.469559	30.000000	0.000000	128.337543	134.941128	53.111793
3969.350000	129.490909	129.579948	134.579817	129.579948	37.367445	30.000000	0.000000	127.972488	134.768973	53.965278
3969.360000	129.582194	129.222194	134.212304	129.222194	37.228300	30.000000	0.000000	127.595264	134.584521	54.789666
3969.370000	129.631089	128.864440	133.842895	128.864440	37.106019	30.000000	0.000000	127.254546	134.350882	55.575260
3969.380000	129.689771	128.506685	133.473904	128.506685	36.980011	30.000000	0.000000	126.901659	134.178727	56.331758
3969.390000	129.759474	128.146498	133.102856	128.146498	36.849130	30.000000	0.000000	126.500099	134.043462	57.078557
3969.400000	129.827940	127.779009	132.724151	127.779009	36.716790	30.000000	0.000000	126.110707	133.834417	57.864151
3969.410000	129.929022	127.421255	132.356965	127.421255	36.574738	30.000000	0.000000	125.794326	133.674559	58.649745
3969.420000	129.987721	127.054983	131.979060	127.054983	36.446880	30.000000	0.000000	125.392765	133.477810	59.425640
3969.430000	130.029078	126.689928	131.601652	126.689928	36.326198	30.000000	0.000000	125.039878	133.354842	60.259728
3969.440000	130.029078	126.323656	131.221179	126.323656	36.221175	30.000000	0.000000	124.674823	133.194984	60.958033
3969.450000	130.038868	125.954950	130.838601	125.954950	36.111699	30.000000	0.000000	124.285431	132.912158	61.763025
3969.460000	130.130172	125.586244	130.459527	125.586244	35.971061	30.000000	0.000000	123.908208	132.826081	62.587414
3969.470000	130.210656	125.215105	130.077436	125.215105	35.834066	30.000000	0.000000	123.543153	132.703113	63.373008
3969.480000	130.279137	124.843965	129.694812	124.843965	35.701821	30.000000	0.000000	123.190266	132.555551	64.119807
3969.490000	130.399818	124.478910	129.320714	124.478910	35.551693	30.000000	0.000000	122.849548	132.371100	64.905401
3969.500000	130.399818	124.110205	128.937667	124.110205	35.446390	30.000000	0.000000	122.423650	132.223538	65.758886
3969.510000	130.511849	123.737849	128.555570	123.737849	35.297853	30.000000	0.000000	122.070764	132.149758	66.486289
3969.520000	130.550995	123.369143	128.174161	123.369143	35.177979	30.000000	0.000000	121.705709	131.977603	67.262184
3969.530000	130.612964	122.959064	127.750717	122.959064	35.037865	30.000000	0.000000	120.939093	131.670183	68.843072
3969.540000	130.652114	122.585491	127.364228	122.585491	34.916813	30.000000	0.000000	120.939093	131.670183	68.843072
3969.550000	130.732577	122.215569	126.983248	122.215569	34.781533	30.000000	0.000000	120.586207	131.522622	69.599570
3969.560000	130.794548	121.844430	126.600212	121.844430	34.652945	30.000000	0.000000	120.196815	131.411951	70.365767
3969.570000	130.855425	121.427050	126.169069	121.427050	34.511763	30.000000	0.000000	119.369357	131.129125	71.956354
3969.580000	130.934837	121.012104	125.741203	121.012104	34.364610	30.000000	0.000000	119.040808	131.006157	72.732249
3969.590000	131.005530	120.593508	125.309162	120.593508	34.219824	30.000000	0.000000	118.663584	130.920079	73.517844
3969.600000	131.076156	120.173695	124.875832	120.173695	34.074901	30.000000	0.000000	118.225518	130.797112	74.293740
3969.610000	131.138132	119.729545	124.416839	119.729545	33.926414	30.000000	0.000000	117.629262	130.698737	75.089034
3969.620000	131.247974	119.250106	123.923104	119.250106	33.750764	30.000000	0.000000	116.911321	130.563473	75.787340
3969.630000	131.296894	118.763366	123.419275	118.763366	33.595356	30.000000	0.000000	116.071695	130.452802	76.640826
3969.640000	131.296894	118.192663	122.826199	118.192663	33.433917	30.000000	0.000000	115.232068	130.354428	77.484613
3969.650000	131.407872	117.564769	122.178144	117.564769	33.216675	30.000000	0.000000	114.307263	130.231460	78.309003
3969.660000	131.439300	116.879683	121.467428	116.879683	33.011957	30.000000	0.000000	113.345952	130.059305	79.181886
3969.670000	131.478468	116.159308	120.720331	116.159308	32.794677	30.000000	0.000000	112.165608	129.887150	80.015975
3969.680000	131.489443	115.353754	119.883578	115.353754	32.563404	30.000000	0.000000	110.985265	129.702698	80.898557
3969.690000	131.530698	114.480056	118.977183	114.480056	32.302428	30.000000	0.000000	109.926606	129.444466	81.781139
3969.700000	131.530698	113.547949	118.008461	113.547949	32.039419	30.000000	0.000000	108.904453	129.186233	82.469747
3969.710000	131.550284	112.581771	117.005081	112.581771	31.760102	30.000000	0.000000	107.967479	128.903408	83.526906
3969.720000	131.569870	111.605858	115.991570	111.605858	31.478154	30.000000	0.000000	107.152191	128.608285	84.351296

