LabVIEW Measurement	
Writer_Version	0.92
Reader_Version	1
Separator	Tab
Multi_Headings	Yes
X_Columns	One
Time_Pref	Absolute
Operator	LHRI
Description	This is a HULC measurement file.
Date	2010/10/18
Time	19:31:30.329999
***End_of_Header***	
	
Channels	10										
Samples	1793	1793	1793	1793	1793	1793	1793	1793	1793	1793	
Date	2010/10/18	2010/10/18	2010/10/18	2010/10/18	2010/10/18	2010/10/18	2010/10/18	2010/10/18	2010/10/18	2010/10/18	
Time	19:31:48.892999	19:31:48.892999	19:31:48.892999	19:31:48.892999	19:31:48.892999	19:31:48.892999	19:31:48.892999	19:31:48.892999	19:31:48.892999	19:31:48.892999	
X_Dimension	Time	Time	Time	Time	Time	Time	Time	Time	Time	Time	
X0	1.8736560001373291E+3	1.8736560001373291E+3	1.8736560001373291E+3	1.8736560001373291E+3	1.8736560001373291E+3	1.8736560001373291E+3	1.8736560001373291E+3	1.8736560001373291E+3	1.8736560001373291E+3	1.8736560001373291E+3	
Delta_X	0.010000	0.010000	0.010000	0.010000	0.010000	0.010000	0.010000	0.010000	0.010000	0.010000	
***End_of_Header***											
X_Value	Joint Angle (Resampled)	Brachialis Motor Mount (Prime Mover) (Resampled)	Biceps (Resampled)	Brachialis (Resampled)	Brachioradialis (Resampled)	Supinator (Resampled)	Pronator Terres (Resampled)	Brachialis Motor Mount (Resampled)	Triceps Motor Mount (Resampled)	Biceps Motor Mount (Resampled)	Comment
1873.656000	156.673529	3.963658	4.143824	3.963658	0.900831	30.000000	0.000000	3.963658	7.571489	3.920089
1873.666000	156.673529	3.945405	4.124741	3.945405	0.896683	30.000000	0.000000	3.927152	7.571489	3.929788
1873.676000	156.673529	3.914984	4.092938	3.914984	0.889769	30.000000	0.000000	3.854141	7.596082	3.939486
1873.686000	156.673529	3.921068	4.099298	3.921068	0.891152	30.000000	0.000000	3.939321	7.632972	3.920089
1873.696000	156.673529	3.922285	4.100570	3.922285	0.891428	30.000000	0.000000	3.927152	7.743643	3.929788
1873.706000	156.673529	3.923096	4.101419	3.923096	0.891613	30.000000	0.000000	3.927152	7.866610	4.026774
1873.716000	156.673529	3.925414	4.103842	3.925414	0.892140	30.000000	0.000000	3.939321	8.026467	3.900692
1873.726000	156.673529	3.928673	4.107249	3.928673	0.892880	30.000000	0.000000	3.951489	8.186324	3.920089
1873.736000	156.673529	3.931208	4.109900	3.931208	0.893456	30.000000	0.000000	3.951489	8.321588	3.939486
1873.746000	156.673529	3.939321	4.118381	3.939321	0.895300	30.000000	0.000000	4.012331	8.481446	3.920089
1873.756000	156.673529	3.953923	4.133647	3.953923	0.898619	30.000000	0.000000	4.109679	8.629006	3.978281
1873.766000	156.673529	3.980693	4.161634	3.980693	0.904703	30.000000	0.000000	4.194858	8.715083	4.026774
1873.776000	156.673529	4.026933	4.209976	4.026933	0.915212	30.000000	0.000000	4.316542	8.751974	4.104364
1873.786000	156.673529	4.095077	4.281217	4.095077	0.930699	30.000000	0.000000	4.620754	8.776567	4.346831
1873.796000	156.673529	4.182690	4.372812	4.182690	0.950611	30.000000	0.000000	4.803280	8.665897	4.443817
1873.806000	156.673529	4.270302	4.464407	4.270302	0.970523	30.000000	0.000000	4.803280	8.665897	4.443817
1873.816000	156.673529	4.371300	4.569996	4.371300	0.993477	30.000000	0.000000	4.949302	8.555226	4.569900
1873.826000	156.673529	4.511238	4.716294	4.511238	1.025281	30.000000	0.000000	5.350860	8.284698	4.957847
1873.836000	156.673529	4.671861	4.884218	4.671861	1.061787	30.000000	0.000000	5.557724	8.124841	5.122725
1873.846000	156.673529	4.849520	5.069953	4.849520	1.102164	30.000000	0.000000	5.788924	7.940390	5.413685
1873.856000	156.673529	5.040565	5.269682	5.040565	1.145583	30.000000	0.000000	6.020125	7.768236	5.568864
1873.866000	156.673529	5.247429	5.485948	5.247429	1.192597	30.000000	0.000000	6.263494	7.546895	5.821030
1873.876000	156.673529	5.466461	5.714936	5.466461	1.242377	30.000000	0.000000	6.506863	7.374741	6.092592
1873.886000	156.673529	5.679408	5.937563	5.679408	1.290775	30.000000	0.000000	6.750232	7.190290	6.335059
1873.896000	156.683800	5.904525	6.172912	5.904525	1.341937	30.000000	0.000000	7.054443	7.042730	6.626020
1873.906000	156.683800	6.153978	6.433704	6.153978	1.398631	30.000000	0.000000	7.297812	6.858279	6.916980
1873.916000	156.683800	6.415599	6.707218	6.415599	1.458091	30.000000	0.000000	7.565518	6.735312	7.198242
1873.926000	156.683800	6.661402	6.964193	6.661402	1.513955	30.000000	0.000000	7.808887	6.636938	7.382516
1873.936000	156.683800	6.913289	7.227529	6.913289	1.571202	30.000000	0.000000	8.076592	6.624641	7.789861
1873.946000	156.683800	7.167609	7.493410	7.167609	1.629002	30.000000	0.000000	8.332130	6.563158	8.071122
1873.956000	156.683800	7.423147	7.760563	7.423147	1.687079	30.000000	0.000000	8.575499	6.624641	8.352384
1873.966000	156.683800	7.675034	8.023899	7.675034	1.744326	30.000000	0.000000	8.782362	6.649235	8.633646
1873.976000	156.683800	7.928137	8.288507	7.928137	1.801849	30.000000	0.000000	9.037900	6.698421	8.944003
1873.986000	156.683800	8.175157	8.546755	8.175157	1.857990	30.000000	0.000000	9.220426	6.809092	9.176772
1873.996000	156.683800	8.414875	8.797370	8.414875	1.912472	30.000000	0.000000	9.451627	6.907466	9.496828
1874.006000	156.683800	8.647293	9.040351	8.647293	1.965294	30.000000	0.000000	9.621985	7.067323	9.710199
1874.016000	156.683800	8.876059	9.279517	8.876059	2.017286	30.000000	0.000000	9.853186	7.177994	9.962364
1874.026000	156.683800	9.095091	9.508505	9.095091	2.067066	30.000000	0.000000	9.999207	7.423928	10.233927
1874.036000	156.683800	9.304389	9.727315	9.304389	2.114634	30.000000	0.000000	10.169565	7.596082	10.437600
1874.046000	156.683800	9.503951	9.935949	9.503951	2.159989	30.000000	0.000000	10.327755	7.829720	10.680066
1874.056000	156.683800	9.690128	10.130589	9.690128	2.202302	30.000000	0.000000	10.437271	8.026467	10.815848
1874.066000	156.683800	9.872655	10.321412	9.872655	2.243785	30.000000	0.000000	10.607629	8.284698	11.000123
1874.076000	156.683800	10.039363	10.495697	10.039363	2.281673	30.000000	0.000000	10.704977	8.493742	10.990424
1874.086000	156.683800	10.198769	10.662350	10.198769	2.317902	30.000000	0.000000	10.814493	8.776567	11.291083
1874.096000	156.683800	10.343574	10.813736	10.343574	2.350812	30.000000	0.000000	10.899672	9.047095	11.378371
1874.106000	156.692894	10.476210	10.952401	10.476210	2.380957	30.000000	0.000000	10.948346	9.329919	11.494755
1874.116000	156.683800	10.591810	11.073256	10.591810	2.407230	30.000000	0.000000	11.009188	9.625041	11.523851
1874.126000	156.683800	10.695242	11.181389	10.695242	2.430737	30.000000	0.000000	11.033525	9.957052	11.611139
1874.136000	156.683800	10.784072	11.274257	10.784072	2.450925	30.000000	0.000000	11.057862	10.239877	11.611139
1874.146000	156.683800	10.857082	11.350586	10.857082	2.467519	30.000000	0.000000	11.057862	10.571888	11.620838
1874.156000	156.683800	10.919141	11.415466	10.919141	2.481623	30.000000	0.000000	11.057862	10.928493	11.591742
1874.166000	156.683800	10.960514	11.458719	10.960514	2.491026	30.000000	0.000000	11.021356	11.149834	11.543249
1874.176000	156.683800	10.990935	11.490523	10.990935	2.497940	30.000000	0.000000	11.009188	11.567922	11.494755
1874.186000	156.683800	11.006754	11.507061	11.006754	2.501535	30.000000	0.000000	10.972683	11.875340	11.417166
1874.196000	156.683800	11.016489	11.517239	11.016489	2.503748	30.000000	0.000000	10.997020	12.293429	11.339576
1874.206000	156.683800	11.004321	11.504517	11.004321	2.500982	30.000000	0.000000	10.826661	12.613143	11.271686
1874.216000	156.683800	10.983634	11.482890	10.983634	2.496281	30.000000	0.000000	10.802324	13.006638	11.145603
1874.226000	156.683800	10.953213	11.451086	10.953213	2.489367	30.000000	0.000000	10.729314	13.314056	10.854643
1874.236000	156.683800	10.906973	11.402745	10.906973	2.478858	30.000000	0.000000	10.595461	14.014969	10.747957
1874.246000	156.683800	10.854649	11.348042	10.854649	2.466966	30.000000	0.000000	10.534619	14.396168	10.612176
1874.256000	156.683800	10.802324	11.293339	10.802324	2.455074	30.000000	0.000000	10.534619	14.396168	10.612176
1874.266000	156.683800	10.742699	11.231003	10.742699	2.441522	30.000000	0.000000	10.425103	14.752772	10.476394
1874.276000	156.683800	10.664821	11.149586	10.664821	2.423823	30.000000	0.000000	10.230407	15.465982	10.136941
1874.286000	156.683800	10.582075	11.063079	10.582075	2.405017	30.000000	0.000000	10.145228	15.797993	9.962364
1874.296000	156.673529	10.489595	10.966395	10.489595	2.383999	30.000000	0.000000	10.072218	16.166895	9.816884
1874.306000	156.673529	10.403199	10.876072	10.403199	2.364363	30.000000	0.000000	9.962702	16.437423	9.671404
1874.316000	156.673529	10.311936	10.780660	10.311936	2.343622	30.000000	0.000000	9.889691	16.867808	9.506527
1874.326000	156.673529	10.218239	10.682704	10.218239	2.322327	30.000000	0.000000	9.792343	17.199819	9.390142
1874.336000	156.664434	10.133060	10.593653	10.133060	2.302968	30.000000	0.000000	9.743670	17.581018	9.215566
1874.346000	156.664434	10.040580	10.496970	10.040580	2.281950	30.000000	0.000000	9.609817	17.962216	9.137977
1874.356000	156.664434	9.942015	10.393925	9.942015	2.259549	30.000000	0.000000	9.548974	18.331118	8.944003
1874.366000	156.664434	9.848318	10.295969	9.848318	2.238254	30.000000	0.000000	9.488132	18.687722	8.653043
1874.376000	156.651121	9.768006	10.212007	9.768006	2.220001	30.000000	0.000000	9.427290	19.081217	8.711235
1874.386000	156.651121	9.690128	10.130589	9.690128	2.202302	30.000000	0.000000	9.366448	19.437822	8.526960
1874.396000	156.642026	9.615901	10.052987	9.615901	2.185432	30.000000	0.000000	9.329942	19.819021	8.420275
1874.406000	156.631755	9.547758	9.981747	9.547758	2.169945	30.000000	0.000000	9.281269	20.200219	8.323288
1874.416000	156.631755	9.482048	9.913050	9.482048	2.155011	30.000000	0.000000	9.232595	20.581417	8.236000
1874.426000	156.631755	9.426073	9.854531	9.426073	2.142289	30.000000	0.000000	9.232595	20.938022	8.109917
1874.436000	156.631755	9.374966	9.801100	9.374966	2.130674	30.000000	0.000000	9.232595	21.319220	8.061424
1874.446000	156.612388	9.333593	9.757847	9.333593	2.121271	30.000000	0.000000	9.196089	21.675825	8.051725
1874.456000	156.612388	9.298304	9.720955	9.298304	2.113251	30.000000	0.000000	9.196089	21.946353	8.012930
1874.466000	156.602117	9.269100	9.690423	9.269100	2.106614	30.000000	0.000000	9.196089	22.389035	8.003232
1874.476000	156.602117	9.244763	9.664980	9.244763	2.101083	30.000000	0.000000	9.183921	22.733343	8.003232
1874.486000	156.593020	9.226511	9.645897	9.226511	2.096934	30.000000	0.000000	9.183921	23.114541	8.003232
1874.496000	156.593020	9.205824	9.624271	9.205824	2.092233	30.000000	0.000000	9.123079	23.495740	8.022629
1874.506000	156.582749	9.190005	9.607733	9.190005	2.088638	30.000000	0.000000	9.123079	23.852345	8.032328
1874.516000	156.582749	9.177837	9.595011	9.177837	2.085872	30.000000	0.000000	9.110910	24.221246	7.945040
1874.526000	156.570615	9.164451	9.581017	9.164451	2.082830	30.000000	0.000000	9.098742	24.590148	8.129315
1874.536000	156.570615	9.148633	9.564479	9.148633	2.079235	30.000000	0.000000	9.074405	24.946753	8.206904
1874.546000	156.560344	9.135247	9.550486	9.135247	2.076193	30.000000	0.000000	9.062237	25.327951	8.245699
1874.556000	156.551015	9.123079	9.537764	9.123079	2.073427	30.000000	0.000000	9.074405	26.053457	8.410576
1874.566000	156.551015	9.113344	9.527587	9.113344	2.071215	30.000000	0.000000	9.098742	26.410062	8.488166
1874.576000	156.540746	9.104826	9.518682	9.104826	2.069279	30.000000	0.000000	9.098742	26.410062	8.488166
1874.586000	156.540746	9.096308	9.509777	9.096308	2.067343	30.000000	0.000000	9.098742	26.766667	8.546358
1874.596000	156.531647	9.095091	9.508505	9.095091	2.067066	30.000000	0.000000	9.110910	27.430690	8.769427
1874.606000	156.521378	9.097525	9.511049	9.097525	2.067619	30.000000	0.000000	9.147416	27.848779	8.876113
1874.616000	156.521378	9.103609	9.517410	9.103609	2.069002	30.000000	0.000000	9.171753	28.193087	8.914907
1874.626000	156.521378	9.116995	9.531403	9.116995	2.072044	30.000000	0.000000	9.232595	28.537395	9.040990
1874.636000	156.521378	9.132814	9.547941	9.132814	2.075639	30.000000	0.000000	9.232595	28.894000	9.137977
1874.646000	156.502009	9.152283	9.568296	9.152283	2.080064	30.000000	0.000000	9.256932	29.262901	9.234964
1874.656000	156.502009	9.171753	9.588650	9.171753	2.084489	30.000000	0.000000	9.269100	29.594913	9.205868
1874.666000	156.502009	9.193656	9.611549	9.193656	2.089467	30.000000	0.000000	9.317774	29.963815	9.322252
1874.676000	156.482638	9.217993	9.636992	9.217993	2.094998	30.000000	0.000000	9.342111	30.320419	9.419239
1874.686000	156.482638	9.247197	9.667524	9.247197	2.101636	30.000000	0.000000	9.390785	30.652431	9.506527
1874.696000	156.479608	9.278835	9.700600	9.278835	2.108826	30.000000	0.000000	9.427290	30.996739	9.564719
1874.706000	156.479608	9.305605	9.728588	9.305605	2.114910	30.000000	0.000000	9.415121	31.316454	9.681103
1874.716000	156.469340	9.334810	9.759119	9.334810	2.121548	30.000000	0.000000	9.463795	31.660762	9.710199
1874.726000	156.460238	9.362797	9.788379	9.362797	2.127908	30.000000	0.000000	9.512469	31.931290	9.778090
1874.736000	156.460238	9.390785	9.817638	9.390785	2.134269	30.000000	0.000000	9.512469	32.312488	9.875076
1874.746000	156.460238	9.417555	9.845626	9.417555	2.140353	30.000000	0.000000	9.524638	32.595313	9.884775
1874.756000	156.449970	9.449193	9.878702	9.449193	2.147544	30.000000	0.000000	9.585480	32.951918	9.865378
1874.766000	156.417522	9.478397	9.909234	9.478397	2.154181	30.000000	0.000000	9.609817	33.259336	9.962364
1874.776000	156.408418	9.512469	9.944854	9.512469	2.161925	30.000000	0.000000	9.682827	33.579050	10.020556
1874.786000	156.398149	9.541673	9.975386	9.541673	2.168562	30.000000	0.000000	9.682827	33.898765	10.039954
1874.796000	156.375753	9.570878	10.005917	9.570878	2.175199	30.000000	0.000000	9.719333	34.181590	10.107845
1874.806000	156.356379	9.604949	10.041538	9.604949	2.182943	30.000000	0.000000	9.755838	34.513601	10.030255
1874.816000	156.356379	9.637804	10.075886	9.637804	2.190410	30.000000	0.000000	9.792343	34.796426	10.146639
1874.826000	156.343091	9.668225	10.107690	9.668225	2.197324	30.000000	0.000000	9.816680	35.140734	10.166037
1874.836000	156.323717	9.704731	10.145855	9.704731	2.205621	30.000000	0.000000	9.877522	35.435855	10.195133
1874.846000	156.323717	9.740019	10.182747	9.740019	2.213641	30.000000	0.000000	9.877522	35.730977	10.195133
1874.856000	156.304343	9.766790	10.210735	9.766790	2.219725	30.000000	0.000000	9.853186	36.050691	10.195133
1874.866000	156.301327	9.799644	10.245083	9.799644	2.227192	30.000000	0.000000	9.938365	36.370406	10.195133
1874.876000	156.301327	9.826415	10.273070	9.826415	2.233276	30.000000	0.000000	9.950533	36.640934	10.233927
1874.886000	156.301327	9.855619	10.303602	9.855619	2.239913	30.000000	0.000000	9.974870	36.923759	10.272722
1874.896000	156.240392	9.883607	10.332862	9.883607	2.246274	30.000000	0.000000	9.999207	37.218880	10.136941
1874.906000	156.240392	9.911594	10.362121	9.911594	2.252635	30.000000	0.000000	10.035712	37.538595	10.175735
1874.916000	156.221013	9.937148	10.388836	9.937148	2.258443	30.000000	0.000000	10.047881	37.846013	10.059351
1874.926000	156.188358	9.965135	10.418096	9.965135	2.264803	30.000000	0.000000	10.096554	38.104244	10.001159
1874.936000	156.179247	9.983388	10.437178	9.983388	2.268952	30.000000	0.000000	10.060049	38.436256	9.913871
1874.946000	156.168979	10.004074	10.458805	10.004074	2.273653	30.000000	0.000000	10.084386	38.743674	9.826583
1874.956000	156.146595	10.029628	10.485520	10.029628	2.279461	30.000000	0.000000	10.108723	39.038795	9.681103
1874.966000	156.127215	10.049098	10.505875	10.049098	2.283886	30.000000	0.000000	10.133060	39.641334	9.535623
1874.976000	156.116947	10.067350	10.524957	10.067350	2.288034	30.000000	0.000000	10.133060	39.641334	9.535623
1874.986000	156.107834	10.080736	10.538951	10.080736	2.291076	30.000000	0.000000	10.108723	39.936456	9.419239
1874.996000	156.094567	10.094121	10.552944	10.094121	2.294118	30.000000	0.000000	10.133060	40.256170	9.351348
1875.006000	156.085453	10.105072	10.564394	10.105072	2.296607	30.000000	0.000000	10.145228	40.784930	9.108881
1875.016000	156.075186	10.116024	10.575843	10.116024	2.299096	30.000000	0.000000	10.157397	41.166128	9.060387
1875.026000	156.055990	10.119675	10.579660	10.119675	2.299926	30.000000	0.000000	10.133060	41.448953	9.031291
1875.036000	156.042725	10.124542	10.584748	10.124542	2.301032	30.000000	0.000000	10.108723	41.768667	8.779126
1875.046000	156.042725	10.129409	10.589837	10.129409	2.302138	30.000000	0.000000	10.133060	42.149866	8.788825
1875.056000	156.042725	10.129409	10.589837	10.129409	2.302138	30.000000	0.000000	10.108723	42.371207	8.769427
1875.066000	155.991849	10.124542	10.584748	10.124542	2.301032	30.000000	0.000000	10.084386	42.703218	8.691838
1875.076000	155.981581	10.122108	10.582204	10.122108	2.300479	30.000000	0.000000	10.108723	42.998340	8.691838
1875.086000	155.972463	10.120891	10.580932	10.120891	2.300203	30.000000	0.000000	10.096554	43.293461	8.575454
1875.096000	155.950089	10.113590	10.573299	10.113590	2.298543	30.000000	0.000000	10.060049	43.588582	8.507563
1875.106000	155.930703	10.105072	10.564394	10.105072	2.296607	30.000000	0.000000	10.060049	43.859110	8.449371
1875.116000	155.920435	10.095338	10.554217	10.095338	2.294395	30.000000	0.000000	10.060049	44.240309	8.439672
1875.126000	155.898064	10.088037	10.546584	10.088037	2.292736	30.000000	0.000000	10.060049	44.449353	8.420275
1875.136000	155.878677	10.078302	10.536406	10.078302	2.290523	30.000000	0.000000	10.011375	44.805958	8.342685
1875.146000	155.859288	10.057615	10.514780	10.057615	2.285822	30.000000	0.000000	9.926196	45.101079	8.410576
1875.156000	155.826654	10.045447	10.502058	10.045447	2.283056	30.000000	0.000000	9.987038	45.371607	8.400877
1875.166000	155.807265	10.032062	10.488065	10.032062	2.280014	30.000000	0.000000	9.950533	45.605245	8.371781
1875.176000	155.784900	10.012592	10.467710	10.012592	2.275589	30.000000	0.000000	9.914028	45.924960	8.478467
1875.186000	155.756544	9.990689	10.444811	9.990689	2.270611	30.000000	0.000000	9.877522	46.220081	8.400877
1875.196000	155.723914	9.968786	10.421912	9.968786	2.265633	30.000000	0.000000	9.841017	46.478313	8.391179
1875.206000	155.630140	9.945666	10.397741	9.945666	2.260379	30.000000	0.000000	9.828849	46.761137	8.459070
1875.216000	155.601613	9.916461	10.367210	9.916461	2.253741	30.000000	0.000000	9.768006	47.019369	8.546358
1875.226000	155.601613	9.884824	10.334134	9.884824	2.246551	30.000000	0.000000	9.743670	47.289896	8.507563
1875.236000	155.530197	9.853186	10.301058	9.853186	2.239360	30.000000	0.000000	9.694996	47.511237	8.604550
1875.246000	155.507845	9.821548	10.267982	9.821548	2.232170	30.000000	0.000000	9.609817	47.990810	8.478467
1875.256000	155.466096	9.783825	10.228545	9.783825	2.223597	30.000000	0.000000	9.609817	47.990810	8.478467
1875.266000	155.436433	9.743670	10.186564	9.743670	2.214470	30.000000	0.000000	9.548974	48.150667	8.662742
1875.276000	155.375284	9.694996	10.135677	9.694996	2.203408	30.000000	0.000000	9.427290	48.654833	8.662742
1875.286000	155.375284	9.643888	10.082247	9.643888	2.191793	30.000000	0.000000	9.366448	48.863877	8.633646
1875.296000	155.272507	9.589130	10.025000	9.589130	2.179348	30.000000	0.000000	9.293437	49.023735	8.711235
1875.306000	155.272507	9.530722	9.963936	9.530722	2.166073	30.000000	0.000000	9.244763	49.195889	8.730632
1875.316000	155.201091	9.469879	9.900329	9.469879	2.152245	30.000000	0.000000	9.159584	49.355746	8.711235
1875.326000	155.087932	9.405387	9.832904	9.405387	2.137588	30.000000	0.000000	9.098742	49.515604	8.691838
1875.336000	155.026779	9.336027	9.760391	9.336027	2.121824	30.000000	0.000000	9.001394	49.589384	8.653043
1875.346000	154.965625	9.269100	9.690423	9.269100	2.106614	30.000000	0.000000	8.940552	49.847615	8.565755
1875.356000	154.923886	9.196089	9.614094	9.196089	2.090020	30.000000	0.000000	8.879710	49.970583	8.556056
1875.366000	154.852476	9.121862	9.536492	9.121862	2.073150	30.000000	0.000000	8.806699	50.068956	8.497864
1875.376000	154.791323	9.052502	9.463979	9.052502	2.057387	30.000000	0.000000	8.733688	50.216517	8.410576
1875.386000	154.762742	8.980708	9.388922	8.980708	2.041070	30.000000	0.000000	8.648509	50.302594	8.420275
1875.396000	154.710750	8.904047	9.308776	8.904047	2.023647	30.000000	0.000000	8.526825	50.437858	8.206904
1875.406000	154.607864	8.822518	9.223542	8.822518	2.005118	30.000000	0.000000	8.429477	50.573122	8.226301
1875.416000	154.546762	8.740990	9.138307	8.740990	1.986589	30.000000	0.000000	8.344298	50.683793	8.139013
1875.426000	154.494776	8.655810	9.049256	8.655810	1.967230	30.000000	0.000000	8.246951	50.782166	8.051725
1875.436000	154.455920	8.570631	8.960205	8.570631	1.947871	30.000000	0.000000	8.149603	50.905134	8.042026
1875.446000	154.414190	8.480585	8.866066	8.480585	1.927406	30.000000	0.000000	8.040087	51.028101	7.983834
1875.456000	154.320483	8.392972	8.774471	8.392972	1.907494	30.000000	0.000000	8.003582	51.138771	7.925642
1875.466000	154.259328	8.304142	8.681603	8.304142	1.887305	30.000000	0.000000	7.918403	51.274035	7.867450
1875.476000	154.230712	8.216530	8.590008	8.216530	1.867393	30.000000	0.000000	7.857560	51.360113	7.896546
1875.486000	154.137017	8.127700	8.497141	8.127700	1.847205	30.000000	0.000000	7.760213	51.446190	7.828656
1875.496000	154.107332	8.042521	8.408090	8.042521	1.827846	30.000000	0.000000	7.675034	51.569157	7.731669
1875.506000	154.056424	7.962209	8.324128	7.962209	1.809593	30.000000	0.000000	7.626360	51.679827	7.741367
1875.516000	153.965580	7.889198	8.247798	7.889198	1.793000	30.000000	0.000000	7.614191	51.765905	7.654079
1875.526000	153.884980	7.816188	8.171469	7.816188	1.776406	30.000000	0.000000	7.516844	51.876575	7.634682
1875.536000	153.823821	7.750478	8.102772	7.750478	1.761472	30.000000	0.000000	7.492507	51.913465	7.508599
1875.546000	153.752419	7.690853	8.040437	7.690853	1.747921	30.000000	0.000000	7.443833	51.962652	7.527997
1875.556000	153.752419	7.627577	7.974285	7.627577	1.733540	30.000000	0.000000	7.370823	51.974949	7.401914
1875.566000	153.659794	7.570385	7.914493	7.570385	1.720542	30.000000	0.000000	7.346486	51.999542	7.363119
1875.576000	153.416941	7.514410	7.855974	7.514410	1.707820	30.000000	0.000000	7.297812	51.938059	7.304927
1875.586000	153.294629	7.465736	7.805088	7.465736	1.696758	30.000000	0.000000	7.273475	51.913465	7.275831
1875.596000	153.185333	7.413412	7.750385	7.413412	1.684866	30.000000	0.000000	7.151790	51.888872	7.188543
1875.606000	153.124173	7.376907	7.712221	7.376907	1.676570	30.000000	0.000000	7.261306	51.827388	7.149748
1875.616000	152.992712	7.335534	7.668967	7.335534	1.667167	30.000000	0.000000	7.200464	51.802795	7.110953
1875.626000	152.922224	7.302679	7.634619	7.302679	1.659700	30.000000	0.000000	7.188296	51.753608	7.130351
1875.636000	152.902855	7.275909	7.606632	7.275909	1.653616	30.000000	0.000000	7.224801	51.790498	7.033364
1875.646000	152.883388	7.255222	7.585005	7.255222	1.648914	30.000000	0.000000	7.236970	51.790498	7.023665
1875.656000	152.874148	7.249138	7.578644	7.249138	1.647531	30.000000	0.000000	7.309980	52.011839	6.994569
1875.666000	152.874148	7.251572	7.581189	7.251572	1.648084	30.000000	0.000000	7.370823	52.208587	7.033364
1875.676000	152.863921	7.264957	7.595182	7.264957	1.651127	30.000000	0.000000	7.431665	52.380741	7.023665
1875.686000	152.863921	7.286860	7.618081	7.286860	1.656105	30.000000	0.000000	7.492507	52.626675	7.062460
1875.696000	152.863921	7.327016	7.660062	7.327016	1.665231	30.000000	0.000000	7.553349	52.860313	6.926679
1875.706000	152.861163	7.362305	7.696955	7.362305	1.673251	30.000000	0.000000	7.614191	53.180028	7.072159
1875.716000	152.861163	7.413412	7.750385	7.413412	1.684866	30.000000	0.000000	7.711539	53.389072	7.081857
1875.726000	152.861163	7.474254	7.813993	7.474254	1.698694	30.000000	0.000000	7.796718	53.733381	7.110953
1875.736000	152.861163	7.538747	7.881417	7.538747	1.713352	30.000000	0.000000	7.869729	54.053096	7.149748
1875.746000	152.861163	7.614191	7.960291	7.614191	1.730498	30.000000	0.000000	7.991413	54.385107	7.256434
1875.756000	152.851923	7.689636	8.039165	7.689636	1.747644	30.000000	0.000000	8.064424	54.704822	7.275831
1875.766000	152.851923	7.767514	8.120583	7.767514	1.765344	30.000000	0.000000	8.149603	55.061427	7.295228
1875.776000	152.851923	7.849042	8.205817	7.849042	1.783873	30.000000	0.000000	8.246951	55.418032	7.343722
1875.786000	152.832455	7.934222	8.294868	7.934222	1.803232	30.000000	0.000000	8.344298	55.688560	7.431010
1875.796000	152.832455	8.021834	8.386463	8.021834	1.823144	30.000000	0.000000	8.429477	56.118946	7.469805
1875.806000	152.812986	8.113098	8.481875	8.113098	1.843886	30.000000	0.000000	8.526825	56.487848	7.518298
1875.816000	152.793517	8.208012	8.581103	8.208012	1.865457	30.000000	0.000000	8.660678	56.782969	7.576490
1875.826000	152.774046	8.295624	8.672698	8.295624	1.885369	30.000000	0.000000	8.672846	57.188761	7.576490
1875.836000	152.764801	8.385671	8.766838	8.385671	1.905834	30.000000	0.000000	8.770194	57.520773	7.634682
1875.846000	152.742692	8.474501	8.859705	8.474501	1.926023	30.000000	0.000000	8.879710	57.877378	7.508599
1875.856000	152.723223	8.562113	8.951300	8.562113	1.945935	30.000000	0.000000	8.940552	58.197093	7.751066
1875.866000	152.712999	8.647293	9.040351	8.647293	1.965294	30.000000	0.000000	9.001394	58.565995	7.770463
1875.876000	152.712999	8.731255	9.128130	8.731255	1.984376	30.000000	0.000000	9.086573	58.922600	7.760765
1875.886000	152.684280	8.814000	9.214637	8.814000	2.003182	30.000000	0.000000	9.171753	59.254612	7.838354
1875.896000	152.674057	8.890661	9.294782	8.890661	2.020605	30.000000	0.000000	9.196089	59.611217	7.877149
1875.906000	152.654585	8.963672	9.371112	8.963672	2.037198	30.000000	0.000000	9.256932	59.967822	7.867450
1875.916000	152.651842	9.029382	9.439808	9.029382	2.052132	30.000000	0.000000	9.317774	60.312130	7.925642
1875.926000	152.632370	9.098742	9.512321	9.098742	2.067896	30.000000	0.000000	9.366448	60.668736	7.954738
1875.936000	152.623119	9.164451	9.581017	9.164451	2.082830	30.000000	0.000000	9.427290	60.951560	7.993533
1875.946000	152.623119	9.224077	9.643353	9.224077	2.096381	30.000000	0.000000	9.475964	61.406539	8.080821
1875.956000	152.612898	9.281269	9.703144	9.281269	2.109379	30.000000	0.000000	9.512469	61.738551	8.080821
1875.966000	152.612898	9.340894	9.765480	9.340894	2.122930	30.000000	0.000000	9.597648	62.095156	8.129315
1875.976000	152.603646	9.389568	9.816366	9.389568	2.133993	30.000000	0.000000	9.573311	62.464058	8.158411
1875.986000	152.593424	9.437025	9.865980	9.437025	2.144778	30.000000	0.000000	9.646322	62.808367	8.226301
1875.996000	152.584171	9.482048	9.913050	9.482048	2.155011	30.000000	0.000000	9.646322	63.189565	8.109917
1876.006000	152.584171	9.524638	9.957576	9.524638	2.164690	30.000000	0.000000	9.682827	63.533874	8.362083
1876.016000	152.573950	9.568444	10.003373	9.568444	2.174646	30.000000	0.000000	9.755838	64.271678	8.429974
1876.026000	152.554475	9.609817	10.046626	9.609817	2.184049	30.000000	0.000000	9.780175	64.640580	8.468768
1876.036000	152.551739	9.645105	10.083519	9.645105	2.192069	30.000000	0.000000	9.780175	64.640580	8.468768
1876.046000	152.551739	9.674309	10.114051	9.674309	2.198707	30.000000	0.000000	9.768006	64.984888	8.478467
1876.056000	152.541518	9.701080	10.142038	9.701080	2.204791	30.000000	0.000000	9.780175	65.698099	8.633646
1876.066000	152.532264	9.724200	10.166209	9.724200	2.210045	30.000000	0.000000	9.828849	66.042407	8.672440
1876.076000	152.532264	9.749754	10.192924	9.749754	2.215853	30.000000	0.000000	9.828849	66.362122	8.769427
1876.086000	152.532264	9.770440	10.214551	9.770440	2.220555	30.000000	0.000000	9.853186	66.755618	8.808222
1876.096000	152.512789	9.787476	10.232361	9.787476	2.224426	30.000000	0.000000	9.816680	67.136816	8.895510
1876.106000	152.502568	9.806945	10.252716	9.806945	2.228851	30.000000	0.000000	9.877522	67.481125	8.895510
1876.116000	152.502568	9.816680	10.262893	9.816680	2.231064	30.000000	0.000000	9.853186	67.850027	8.905209
1876.126000	152.493312	9.827632	10.274342	9.827632	2.233553	30.000000	0.000000	9.889691	68.194335	8.934305
1876.136000	152.483092	9.838583	10.285792	9.838583	2.236042	30.000000	0.000000	9.889691	68.550941	8.914907
1876.146000	152.483092	9.850752	10.298513	9.850752	2.238807	30.000000	0.000000	9.889691	68.907546	9.002195
1876.156000	152.473835	9.860487	10.308691	9.860487	2.241020	30.000000	0.000000	9.877522	69.313338	9.031291
1876.166000	152.460885	9.864137	10.312507	9.864137	2.241849	30.000000	0.000000	9.865354	69.645350	9.060387
1876.176000	152.460885	9.869005	10.317596	9.869005	2.242956	30.000000	0.000000	9.877522	70.001955	9.079785
1876.186000	152.441409	9.864137	10.312507	9.864137	2.241849	30.000000	0.000000	9.804512	70.370857	9.108881
1876.196000	152.441409	9.870221	10.318868	9.870221	2.243232	30.000000	0.000000	9.877522	70.739759	9.147676
1876.206000	152.441409	9.871438	10.320140	9.871438	2.243509	30.000000	0.000000	9.889691	71.071771	9.157374
1876.216000	152.441409	9.872655	10.321412	9.872655	2.243785	30.000000	0.000000	9.865354	71.452970	9.283457
1876.226000	152.421931	9.871438	10.320140	9.871438	2.243509	30.000000	0.000000	9.877522	71.834169	9.225265
1876.236000	152.411712	9.870221	10.318868	9.870221	2.243232	30.000000	0.000000	9.877522	72.215367	9.264060
1876.246000	152.402453	9.869005	10.317596	9.869005	2.242956	30.000000	0.000000	9.877522	72.584269	9.283457
1876.256000	152.402453	9.870221	10.318868	9.870221	2.243232	30.000000	0.000000	9.889691	72.965468	9.312553
1876.266000	152.392234	9.871438	10.320140	9.871438	2.243509	30.000000	0.000000	9.877522	73.334370	9.341649
1876.276000	152.382975	9.872655	10.321412	9.872655	2.243785	30.000000	0.000000	9.889691	73.678679	9.370745
1876.286000	152.380250	9.878739	10.327773	9.878739	2.245168	30.000000	0.000000	9.865354	74.047581	9.458033
1876.296000	152.370031	9.877522	10.326501	9.877522	2.244891	30.000000	0.000000	9.865354	74.428780	9.380444
1876.306000	152.360772	9.873872	10.322684	9.873872	2.244062	30.000000	0.000000	9.853186	74.834572	9.438636
1876.316000	152.350553	9.870221	10.318868	9.870221	2.243232	30.000000	0.000000	9.828849	75.166584	9.419239
1876.326000	152.350553	9.861703	10.309963	9.861703	2.241296	30.000000	0.000000	9.792343	75.547783	9.448335
1876.336000	152.331074	9.838583	10.285792	9.838583	2.236042	30.000000	0.000000	9.646322	75.916685	9.467732
1876.346000	152.331074	9.819114	10.265437	9.819114	2.231617	30.000000	0.000000	9.682827	76.285587	9.477431
1876.356000	152.331074	9.792343	10.237450	9.792343	2.225533	30.000000	0.000000	9.621985	76.691379	9.419239
1876.366000	152.311595	9.758272	10.201829	9.758272	2.217789	30.000000	0.000000	9.536806	77.072578	9.487129
1876.376000	152.308875	9.716899	10.158576	9.716899	2.208386	30.000000	0.000000	9.475964	77.429184	9.331950
1876.386000	152.298657	9.665791	10.105146	9.665791	2.196771	30.000000	0.000000	9.354279	78.166988	9.254361
1876.396000	152.279178	9.606166	10.042810	9.606166	2.183220	30.000000	0.000000	9.269100	78.548187	9.225265
1876.406000	152.279178	9.547758	9.981747	9.547758	2.169945	30.000000	0.000000	9.269100	78.548187	9.225265
1876.416000	152.269916	9.485698	9.916867	9.485698	2.155841	30.000000	0.000000	9.208258	78.917089	9.147676
1876.426000	152.259698	9.415121	9.843082	9.415121	2.139800	30.000000	0.000000	9.086573	79.642597	9.060387
1876.436000	152.259698	9.348195	9.773113	9.348195	2.124590	30.000000	0.000000	8.977057	79.974609	8.963401
1876.446000	152.259698	9.276401	9.698056	9.276401	2.108273	30.000000	0.000000	8.964889	80.404995	8.944003
1876.456000	152.240218	9.204607	9.622999	9.204607	2.091956	30.000000	0.000000	8.904047	80.737007	8.876113
1876.466000	152.218023	9.135247	9.550486	9.135247	2.076193	30.000000	0.000000	8.843205	81.105909	8.808222
1876.476000	152.218023	9.061020	9.472884	9.061020	2.059323	30.000000	0.000000	8.733688	81.487108	8.730632
1876.486000	152.207806	8.997744	9.406732	8.997744	2.044942	30.000000	0.000000	8.721520	81.868307	8.662742
1876.496000	152.198542	8.938118	9.344397	8.938118	2.031391	30.000000	0.000000	8.672846	82.224912	8.526960
1876.506000	152.188325	8.872409	9.275700	8.872409	2.016457	30.000000	0.000000	8.612004	82.606111	8.410576
1876.516000	152.179060	8.809133	9.209548	8.809133	2.002076	30.000000	0.000000	8.575499	82.950420	8.274795
1876.526000	152.168844	8.750724	9.148485	8.750724	1.988801	30.000000	0.000000	8.502488	83.282432	8.100219
1876.536000	152.146653	8.699617	9.095054	8.699617	1.977186	30.000000	0.000000	8.465983	83.725115	8.003232
1876.546000	152.136437	8.643642	9.036535	8.643642	1.964464	30.000000	0.000000	8.405140	84.106314	7.848053
1876.556000	152.116955	8.592535	8.983104	8.592535	1.952849	30.000000	0.000000	8.392972	84.438326	7.712271
1876.566000	152.116955	8.538993	8.927129	8.538993	1.940680	30.000000	0.000000	8.307793	84.794931	7.547394
1876.576000	152.094768	8.493970	8.880060	8.493970	1.930448	30.000000	0.000000	8.283456	85.151537	7.382516
1876.586000	152.075286	8.450164	8.834262	8.450164	1.920492	30.000000	0.000000	8.283456	85.520439	7.091556
1876.596000	152.064891	8.408791	8.791009	8.408791	1.911089	30.000000	0.000000	8.259119	85.852451	7.081857
1876.606000	152.045406	8.373502	8.754116	8.373502	1.903069	30.000000	0.000000	8.259119	86.196760	6.858788
1876.616000	152.042707	8.344298	8.723584	8.344298	1.896431	30.000000	0.000000	8.283456	86.565662	6.684212
1876.626000	152.003737	8.318744	8.696869	8.318744	1.890624	30.000000	0.000000	8.246951	86.909971	6.509636
1876.636000	151.984251	8.294408	8.671426	8.294408	1.885093	30.000000	0.000000	8.222614	87.217390	6.335059
1876.646000	151.971341	8.283456	8.659977	8.283456	1.882604	30.000000	0.000000	8.295624	87.549402	6.199278
1876.656000	151.951856	8.277372	8.653616	8.277372	1.881221	30.000000	0.000000	8.332130	87.844524	6.005304
1876.666000	151.910193	8.279805	8.656160	8.279805	1.881774	30.000000	0.000000	8.332130	88.176536	5.976208
1876.676000	151.890707	8.288323	8.665065	8.288323	1.883710	30.000000	0.000000	8.368635	88.422471	5.782235
1876.686000	151.871220	8.299275	8.676515	8.299275	1.886199	30.000000	0.000000	8.392972	88.766780	5.714344
1876.696000	151.847906	8.313877	8.691781	8.313877	1.889518	30.000000	0.000000	8.405140	89.086495	5.549467
1876.706000	151.847906	8.334563	8.713407	8.334563	1.894219	30.000000	0.000000	8.465983	89.406210	5.510672
1876.716000	151.757993	8.350382	8.729945	8.350382	1.897814	30.000000	0.000000	8.441646	89.701332	5.442781
1876.726000	151.757993	8.375936	8.756661	8.375936	1.903622	30.000000	0.000000	8.502488	89.996454	5.355493
1876.736000	151.725613	8.405140	8.787192	8.405140	1.910259	30.000000	0.000000	8.514656	90.303873	5.287602
1876.746000	151.676418	8.440429	8.824085	8.440429	1.918279	30.000000	0.000000	8.648509	90.906413	5.248808
1876.756000	151.603104	8.476934	8.862249	8.476934	1.926576	30.000000	0.000000	8.697183	91.176942	5.239109
1876.766000	151.564114	8.513440	8.900414	8.513440	1.934873	30.000000	0.000000	8.697183	91.176942	5.239109
1876.776000	151.529313	8.554812	8.943667	8.554812	1.944276	30.000000	0.000000	8.782362	91.472064	5.239109
1876.786000	151.457971	8.605920	8.997098	8.605920	1.955891	30.000000	0.000000	8.904047	92.013121	5.316698
1876.796000	151.396599	8.665545	9.059434	8.665545	1.969442	30.000000	0.000000	9.001394	92.283649	5.336096
1876.806000	151.325256	8.726387	9.123041	8.726387	1.983270	30.000000	0.000000	9.074405	92.504991	5.481576
1876.816000	151.283371	8.796964	9.196826	8.796964	1.999310	30.000000	0.000000	9.147416	92.763222	5.433082
1876.826000	151.180601	8.872409	9.275700	8.872409	2.016457	30.000000	0.000000	9.256932	92.959970	5.559165
1876.836000	151.180601	8.957588	9.364751	8.957588	2.035815	30.000000	0.000000	9.366448	93.193608	5.636755
1876.846000	151.067370	9.034249	9.444897	9.034249	2.053238	30.000000	0.000000	9.415121	93.402653	5.714344
1876.856000	150.996034	9.114561	9.528859	9.114561	2.071491	30.000000	0.000000	9.500301	93.587104	5.840427
1876.866000	150.811467	9.202174	9.620454	9.202174	2.091403	30.000000	0.000000	9.573311	93.771556	5.947112
1876.876000	150.688024	9.287353	9.709505	9.287353	2.110762	30.000000	0.000000	9.634154	93.894523	6.063496
1876.886000	150.555580	9.370098	9.796012	9.370098	2.129568	30.000000	0.000000	9.731501	94.005194	6.189579
1876.896000	150.415525	9.449193	9.878702	9.449193	2.147544	30.000000	0.000000	9.792343	94.152755	6.315662
1876.906000	150.344212	9.528288	9.961392	9.528288	2.165520	30.000000	0.000000	9.865354	94.165052	6.490238
1876.916000	150.129065	9.606166	10.042810	9.606166	2.183220	30.000000	0.000000	9.926196	94.226535	6.606622
1876.926000	150.060315	9.671876	10.111506	9.671876	2.198154	30.000000	0.000000	9.914028	94.238832	6.761801
1876.936000	149.949104	9.736368	10.178769	9.736368	2.214253	30.000000	0.000000	10.011375	94.263426	6.839391
1876.946000	149.820433	9.799644	10.244507	9.799644	2.232313	30.000000	0.000000	10.047881	94.275722	6.994569
1876.956000	149.602648	9.855619	10.302320	9.855619	2.251314	30.000000	0.000000	10.060049	94.226535	7.178844
1876.966000	149.543646	9.907944	10.356825	9.907944	2.264969	30.000000	0.000000	10.096554	94.189645	7.169146
1876.976000	149.441803	9.950533	10.401012	9.950533	2.277657	30.000000	0.000000	10.060049	94.189645	7.334023
1876.986000	149.441803	9.985822	10.437898	9.985822	2.285734	30.000000	0.000000	10.084386	94.140458	7.401914
1876.996000	149.441803	10.013809	10.467152	10.013809	2.292141	30.000000	0.000000	10.072218	94.152755	7.469805
1877.006000	149.062048	10.032062	10.484983	10.032062	2.307423	30.000000	0.000000	10.047881	94.103568	7.479503
1877.016000	148.998041	10.044230	10.497490	10.044230	2.312097	30.000000	0.000000	10.047881	94.066678	7.527997
1877.026000	148.894125	10.050314	10.503506	10.050314	2.316543	30.000000	0.000000	9.974870	94.054381	7.557093
1877.036000	148.789716	10.040580	10.492989	10.040580	2.317358	30.000000	0.000000	9.914028	94.017491	7.460106
1877.046000	148.624761	10.022327	10.473371	10.022327	2.317970	30.000000	0.000000	9.865354	94.017491	7.518298
1877.056000	148.533147	9.995556	10.445095	9.995556	2.314452	30.000000	0.000000	9.792343	93.943710	7.508599
1877.066000	148.441870	9.960268	10.407921	9.960268	2.308935	30.000000	0.000000	9.743670	93.882226	7.479503
1877.076000	148.330732	9.915245	10.360513	9.915245	2.301717	30.000000	0.000000	9.609817	93.820743	7.334023
1877.086000	148.197101	9.858053	10.300320	9.858053	2.292288	30.000000	0.000000	9.512469	93.734665	7.227338
1877.096000	148.137649	9.802078	10.241643	9.802078	2.280975	30.000000	0.000000	9.512469	93.734665	7.227338
1877.106000	148.033746	9.740019	10.176468	9.740019	2.269492	30.000000	0.000000	9.427290	93.673182	7.246735
1877.116000	147.806416	9.662141	10.094378	9.662141	2.257767	30.000000	0.000000	9.269100	93.451840	6.994569
1877.126000	147.806416	9.580612	10.009203	9.580612	2.238716	30.000000	0.000000	9.159584	93.390356	6.868487
1877.136000	147.633718	9.500301	9.924759	9.500301	2.224749	30.000000	0.000000	9.110910	93.255092	6.771500
1877.146000	147.480559	9.415121	9.835299	9.415121	2.209021	30.000000	0.000000	9.013563	93.095234	6.616321
1877.156000	147.164888	9.328726	9.744078	9.328726	2.197371	30.000000	0.000000	8.928384	92.947673	6.461142
1877.166000	147.093732	9.238679	9.649806	9.238679	2.178086	30.000000	0.000000	8.843205	92.726332	6.344758
1877.176000	146.921037	9.154717	9.561587	9.154717	2.162923	30.000000	0.000000	8.770194	92.517287	6.102291
1877.186000	146.791254	9.073188	9.476047	9.073188	2.147112	30.000000	0.000000	8.697183	92.308243	6.063496
1877.196000	146.495967	8.988009	9.386211	8.988009	2.134737	30.000000	0.000000	8.660678	91.988527	5.927715
1877.206000	146.295147	8.904047	9.297939	8.904047	2.120041	30.000000	0.000000	8.587667	91.681108	5.821030
1877.216000	146.295147	8.833470	9.224240	8.833470	2.103237	30.000000	0.000000	8.563330	91.349096	5.694947
1877.226000	146.072483	8.772628	9.160061	8.772628	2.094484	30.000000	0.000000	8.551162	90.931007	5.559165
1877.236000	145.818627	8.708135	9.091991	8.708135	2.085578	30.000000	0.000000	8.465983	90.463730	5.374890
1877.246000	145.659107	8.641208	9.021659	8.641208	2.073600	30.000000	0.000000	8.344298	89.627552	5.248808
1877.256000	145.395480	8.559680	8.935795	8.559680	2.060669	30.000000	0.000000	8.113098	88.459361	5.054834
1877.266000	145.199887	8.459898	8.831082	8.459898	2.041514	30.000000	0.000000	7.845392	86.873081	4.851162
1877.276000	144.870382	8.339431	8.704420	8.339431	2.020530	30.000000	0.000000	7.565518	85.090053	4.637791
1877.286000	144.402505	8.203144	8.560897	8.203144	1.998815	30.000000	0.000000	7.334317	82.987310	4.511708
1877.296000	143.989856	8.052255	8.402326	8.052255	1.971846	30.000000	0.000000	7.151790	80.650929	4.337132
1877.306000	143.344579	7.883114	8.224143	7.883114	1.945443	30.000000	0.000000	6.896253	78.191582	4.288639
1877.316000	142.670014	7.700587	8.031994	7.700587	1.915756	30.000000	0.000000	6.738063	75.498596	4.220748
1877.326000	142.670014	7.508326	7.831458	7.508326	1.867925	30.000000	0.000000	6.628547	72.719534	4.036473
1877.336000	142.328734	7.320932	7.635168	7.320932	1.828701	30.000000	0.000000	6.592042	69.915878	4.220748
1877.346000	140.278784	7.139622	7.441192	7.139622	1.826853	30.000000	0.000000	6.531200	67.026146	4.152857
1877.356000	139.494836	6.989950	7.283363	6.989950	1.804873	30.000000	0.000000	6.616379	61.295869	4.259543
1877.366000	139.076529	6.867049	7.154340	6.867049	1.781705	30.000000	0.000000	6.616379	61.295869	4.259543
1877.376000	138.609780	6.783087	7.065803	6.783087	1.769371	30.000000	0.000000	6.725895	58.504511	4.395324
1877.386000	138.194839	6.753882	7.034440	6.753882	1.770126	30.000000	0.000000	7.042274	53.278402	4.734778
1877.396000	138.041660	6.761183	7.041696	6.761183	1.775137	30.000000	0.000000	7.224801	50.966617	4.977245
1877.406000	137.720134	6.808640	7.090385	6.808640	1.794145	30.000000	0.000000	7.370823	48.691723	5.287602
1877.416000	137.636771	6.887735	7.172560	6.887735	1.816706	30.000000	0.000000	7.529012	46.896401	5.539768
1877.426000	137.636771	6.988733	7.277735	6.988733	1.843346	30.000000	0.000000	7.638528	45.211750	5.811331
1877.436000	137.656359	7.107984	7.401964	7.107984	1.874382	30.000000	0.000000	7.784550	43.822220	6.092592
1877.446000	137.734709	7.229669	7.528871	7.229669	1.904775	30.000000	0.000000	7.748044	42.690922	6.335059
1877.456000	137.793473	7.352570	7.657004	7.352570	1.935863	30.000000	0.000000	7.845392	41.817854	6.596924
1877.466000	137.878534	7.476688	7.786476	7.476688	1.966639	30.000000	0.000000	7.857560	41.153831	6.810295
1877.476000	138.167626	7.587421	7.902534	7.587421	1.989206	30.000000	0.000000	7.833223	40.723446	7.062460
1877.486000	138.425680	7.664082	7.983044	7.664082	2.003393	30.000000	0.000000	7.808887	40.538995	7.256434
1877.496000	138.577616	7.713973	8.035404	7.713973	2.012934	30.000000	0.000000	7.723707	40.440621	7.421311
1877.506000	138.641451	7.745611	8.068527	7.745611	2.019713	30.000000	0.000000	7.687202	40.551292	7.557093
1877.516000	138.817955	7.741960	8.065183	7.741960	2.014681	30.000000	0.000000	7.492507	40.711149	7.644381
1877.526000	138.817955	7.731009	8.053774	7.731009	2.011831	30.000000	0.000000	7.529012	40.993974	7.741367
1877.536000	138.817955	7.700587	8.022083	7.700587	2.003914	30.000000	0.000000	7.480339	41.301392	7.818957
1877.546000	138.894860	7.667733	7.988054	7.667733	1.993605	30.000000	0.000000	7.419496	41.645700	7.974136
1877.556000	138.875241	7.623926	7.942367	7.623926	1.982661	30.000000	0.000000	7.407328	41.977712	7.877149
1877.566000	138.865231	7.576469	7.892903	7.576469	1.970546	30.000000	0.000000	7.382991	42.346613	7.993533
1877.576000	138.855622	7.526579	7.840904	7.526579	1.957786	30.000000	0.000000	7.334317	42.715515	8.090520
1877.586000	138.848732	7.479122	7.791448	7.479122	1.945596	30.000000	0.000000	7.334317	43.072120	8.158411
1877.596000	138.655497	7.441399	7.751668	7.441399	1.940076	30.000000	0.000000	7.346486	43.428725	8.197205
1877.606000	138.611248	7.402460	7.710995	7.402460	1.930902	30.000000	0.000000	7.297812	43.785330	8.236000
1877.616000	138.575181	7.385425	7.693160	7.385425	1.927254	30.000000	0.000000	7.322149	44.228012	8.284493
1877.626000	138.578337	7.365955	7.672887	7.365955	1.922104	30.000000	0.000000	7.334317	44.621507	8.187507
1877.636000	138.568722	7.353787	7.660188	7.353787	1.919140	30.000000	0.000000	7.358654	45.088783	8.294192
1877.646000	138.568722	7.347702	7.653850	7.347702	1.917552	30.000000	0.000000	7.358654	45.469981	8.177808
1877.656000	138.568722	7.342835	7.648780	7.342835	1.916282	30.000000	0.000000	7.358654	45.924960	8.109917
1877.666000	138.558728	7.345269	7.651290	7.345269	1.917136	30.000000	0.000000	7.407328	46.392236	8.012930
1877.676000	138.545955	7.355004	7.661399	7.355004	1.919957	30.000000	0.000000	7.431665	46.822621	7.925642
1877.686000	138.545955	7.365955	7.672807	7.365955	1.922816	30.000000	0.000000	7.443833	47.265303	7.867450
1877.696000	138.535962	7.375690	7.682922	7.375690	1.925578	30.000000	0.000000	7.443833	47.695688	7.702573
1877.706000	138.516353	7.396376	7.704422	7.396376	1.931411	30.000000	0.000000	7.504675	48.126074	7.634682
1877.716000	138.415149	7.425581	7.734590	7.425581	1.941283	30.000000	0.000000	7.614191	48.949954	7.431010
1877.726000	138.365940	7.458435	7.768689	7.458435	1.950969	30.000000	0.000000	7.662865	49.318856	7.334023
1877.736000	138.287506	7.488856	7.800178	7.488856	1.960682	30.000000	0.000000	7.662865	49.318856	7.334023
1877.746000	138.248290	7.529012	7.841904	7.529012	1.972078	30.000000	0.000000	7.760213	49.650868	7.207940
1877.756000	138.248290	7.580120	7.895135	7.580120	1.985464	30.000000	0.000000	7.869729	50.278001	6.946076
1877.766000	138.248290	7.633661	7.950902	7.633661	1.999488	30.000000	0.000000	7.942739	50.548529	6.781198
1877.776000	137.951003	7.693286	8.012236	7.693286	2.021945	30.000000	0.000000	8.027919	50.782166	6.761801
1877.786000	137.870918	7.761430	8.082995	7.761430	2.041713	30.000000	0.000000	8.125266	51.003508	6.664814
1877.796000	137.751753	7.835657	8.159984	7.835657	2.064033	30.000000	0.000000	8.186108	51.151068	6.674513
1877.806000	137.642442	7.914752	8.242062	7.914752	2.087458	30.000000	0.000000	8.295624	51.249442	6.577526
1877.816000	137.524813	7.985329	8.315241	7.985329	2.108884	30.000000	0.000000	8.319961	51.372409	6.509636
1877.826000	137.446396	8.072942	8.406261	8.072942	2.133917	30.000000	0.000000	8.538993	51.495377	6.441745
1877.836000	137.348380	8.171506	8.508625	8.171506	2.162370	30.000000	0.000000	8.648509	51.569157	6.422347
1877.846000	137.261910	8.268854	8.609748	8.268854	2.190272	30.000000	0.000000	8.733688	51.606047	6.393251
1877.856000	137.145922	8.364985	8.709515	8.364985	2.218642	30.000000	0.000000	8.831036	51.679827	6.189579
1877.866000	137.047921	8.459898	8.808059	8.459898	2.246301	30.000000	0.000000	8.891878	51.667531	6.208977
1877.876000	136.948324	8.553595	8.905325	8.553595	2.273734	30.000000	0.000000	8.964889	51.716718	6.150785
1877.886000	136.848708	8.648509	9.003851	8.648509	2.301547	30.000000	0.000000	9.074405	51.741311	6.082894
1877.896000	136.848708	8.745857	9.105198	8.745857	2.327453	30.000000	0.000000	9.159584	51.765905	6.150785
1877.906000	136.767089	8.838337	9.201235	8.838337	2.354228	30.000000	0.000000	9.220426	51.790498	6.131387
1877.916000	136.605500	8.934468	9.300826	8.934468	2.384164	30.000000	0.000000	9.281269	51.790498	6.102291
1877.926000	136.545052	9.015996	9.385514	9.015996	2.407556	30.000000	0.000000	9.354279	51.815091	5.985907
1877.936000	136.504289	9.091441	9.463925	9.091441	2.428814	30.000000	0.000000	9.402953	51.864278	6.179881
1877.946000	136.474757	9.163235	9.538569	9.163235	2.448806	30.000000	0.000000	9.451627	51.913465	6.150785
1877.956000	136.362210	9.232595	9.610420	9.232595	2.470461	30.000000	0.000000	9.524638	51.974949	6.170182
1877.966000	136.282269	9.298304	9.678567	9.298304	2.490275	30.000000	0.000000	9.548974	52.036433	6.238073
1877.976000	136.251060	9.356713	9.739266	9.356713	2.506795	30.000000	0.000000	9.548974	52.036433	6.238073
1877.986000	136.202197	9.405387	9.789775	9.405387	2.521216	30.000000	0.000000	9.561143	52.122510	6.296265
1877.996000	136.149842	9.449193	9.835204	9.449193	2.534444	30.000000	0.000000	9.597648	52.270070	6.412649
1878.006000	136.029027	9.482048	9.869014	9.482048	2.546698	30.000000	0.000000	9.548974	52.331554	6.354457
1878.016000	135.970239	9.505168	9.892889	9.505168	2.554586	30.000000	0.000000	9.512469	52.454521	6.364155
1878.026000	135.931048	9.523421	9.911760	9.523421	2.560614	30.000000	0.000000	9.536806	52.552895	6.373854
1878.036000	135.891858	9.530722	9.919233	9.530722	2.563699	30.000000	0.000000	9.475964	52.626675	6.364155
1878.046000	135.751455	9.531939	9.920047	9.531939	2.568049	30.000000	0.000000	9.463795	52.737346	6.335059
1878.056000	135.751455	9.524638	9.912449	9.524638	2.566082	30.000000	0.000000	9.451627	52.811126	6.276867
1878.066000	135.751455	9.513686	9.901051	9.513686	2.563132	30.000000	0.000000	9.439458	52.872610	6.305963
1878.076000	135.661427	9.500301	9.886832	9.500301	2.562097	30.000000	0.000000	9.415121	52.909500	6.131387
1878.086000	135.380622	9.480831	9.865670	9.480831	2.564854	30.000000	0.000000	9.366448	53.020171	6.218675
1878.096000	135.300776	9.455277	9.838823	9.455277	2.560213	30.000000	0.000000	9.342111	52.970984	6.170182
1878.106000	135.201045	9.429724	9.811915	9.429724	2.556124	30.000000	0.000000	9.293437	52.983280	6.199278
1878.116000	135.119425	9.402953	9.783800	9.402953	2.551178	30.000000	0.000000	9.244763	52.958687	6.131387
1878.126000	134.949555	9.371315	9.750341	9.371315	2.547388	30.000000	0.000000	9.220426	52.921797	6.150785
1878.136000	134.867941	9.342111	9.719698	9.342111	2.541746	30.000000	0.000000	9.183921	52.872610	6.111990
1878.146000	134.778073	9.311690	9.687763	9.311690	2.535990	30.000000	0.000000	9.159584	52.823423	6.034400
1878.156000	134.727568	9.280052	9.654689	9.280052	2.528786	30.000000	0.000000	9.135247	52.774236	6.044099
1878.166000	134.507015	9.245980	9.618551	9.245980	2.525649	30.000000	0.000000	9.098742	52.614379	6.005304
1878.176000	134.507015	9.211908	9.583106	9.211908	2.516342	30.000000	0.000000	9.074405	52.589785	5.879222
1878.186000	134.335319	9.180270	9.549659	9.180270	2.512453	30.000000	0.000000	9.050068	52.466818	5.859824
1878.196000	134.276566	9.154717	9.522895	9.154717	2.507081	30.000000	0.000000	9.086573	52.405334	5.850126
1878.206000	134.155787	9.129163	9.495939	9.129163	2.503410	30.000000	0.000000	9.037900	52.270070	5.821030
1878.216000	134.054596	9.108477	9.474109	9.108477	2.500519	30.000000	0.000000	9.037900	52.171697	5.898619
1878.226000	133.912339	9.086573	9.450888	9.086573	2.498408	30.000000	0.000000	9.001394	52.085619	5.821030
1878.236000	133.850310	9.069538	9.432978	9.069538	2.495422	30.000000	0.000000	9.013563	51.974949	5.782235
1878.246000	133.781701	9.053719	9.416314	9.053719	2.492946	30.000000	0.000000	9.001394	51.938059	5.753139
1878.256000	133.700096	9.042767	9.404673	9.042767	2.492159	30.000000	0.000000	9.025731	51.790498	5.743440
1878.266000	133.587117	9.036683	9.397999	9.036683	2.493567	30.000000	0.000000	9.037900	51.765905	5.665851
1878.276000	133.505512	9.029382	9.390156	9.029382	2.493778	30.000000	0.000000	9.001394	51.716718	5.694947
1878.286000	133.414053	9.031815	9.392406	9.031815	2.496947	30.000000	0.000000	9.074405	51.679827	5.636755
1878.296000	133.374899	9.033032	9.393551	9.033032	2.498353	30.000000	0.000000	9.098742	51.642937	5.617357
1878.306000	133.262039	9.041550	9.402062	9.041550	2.503794	30.000000	0.000000	9.123079	51.655234	5.714344
1878.316000	133.181758	9.045201	9.405611	9.045201	2.507000	30.000000	0.000000	9.074405	51.642937	5.636755
1878.326000	133.131435	9.051285	9.411783	9.051285	2.510064	30.000000	0.000000	9.062237	51.618344	5.685248
1878.336000	133.059567	9.050068	9.410297	9.050068	2.511694	30.000000	0.000000	9.001394	51.716718	5.685248
1878.346000	132.996866	9.048851	9.408838	9.048851	2.513073	30.000000	0.000000	8.989226	51.716718	5.665851
1878.356000	132.895689	9.041550	9.400936	9.041550	2.513814	30.000000	0.000000	8.952721	51.753608	5.588261
1878.366000	132.835671	9.022081	9.380508	9.022081	2.510039	30.000000	0.000000	8.843205	51.802795	5.588261
1878.376000	132.774943	9.006262	9.363874	9.006262	2.507294	30.000000	0.000000	8.843205	51.815091	5.568864
1878.386000	132.673778	8.980708	9.336997	8.980708	2.502930	30.000000	0.000000	8.818868	51.815091	5.345794
1878.396000	132.622771	8.951504	9.306479	8.951504	2.496174	30.000000	0.000000	8.806699	51.827388	5.568864
1878.406000	132.622771	8.914998	9.268526	8.914998	2.485994	30.000000	0.000000	8.758025	51.827388	5.530069
1878.416000	132.541180	8.884577	9.236651	8.884577	2.479706	30.000000	0.000000	8.770194	51.815091	5.549467
1878.426000	132.178200	8.855373	9.205195	8.855373	2.481295	30.000000	0.000000	8.770194	51.815091	5.549467
1878.436000	132.178200	8.828602	9.177367	8.828602	2.473794	30.000000	0.000000	8.733688	51.741311	5.568864
1878.446000	132.006443	8.801832	9.149023	8.801832	2.470876	30.000000	0.000000	8.721520	51.655234	5.607659
1878.456000	131.946516	8.777495	9.123547	8.777495	2.465639	30.000000	0.000000	8.709352	51.581454	5.685248
1878.466000	131.885730	8.761676	9.106923	8.761676	2.462811	30.000000	0.000000	8.685015	51.519970	5.597960
1878.476000	131.784592	8.747074	9.091443	8.747074	2.461390	30.000000	0.000000	8.697183	51.495377	5.665851
1878.486000	131.622660	8.734905	9.078313	8.734905	2.462259	30.000000	0.000000	8.697183	51.397003	5.675549
1878.496000	131.573724	8.726387	9.069315	8.726387	2.461154	30.000000	0.000000	8.721520	51.372409	5.665851
1878.506000	131.492163	8.723954	9.066543	8.723954	2.462627	30.000000	0.000000	8.733688	51.323222	5.704645
1878.516000	131.421597	8.725171	9.067597	8.725171	2.464840	30.000000	0.000000	8.782362	51.323222	5.724043
1878.526000	131.369349	8.726387	9.068706	8.726387	2.466569	30.000000	0.000000	8.782362	51.298629	5.762837
1878.536000	131.310673	8.733688	9.076119	8.733688	2.470189	30.000000	0.000000	8.806699	51.274035	5.694947
1878.546000	131.249849	8.738556	9.080995	8.738556	2.473180	30.000000	0.000000	8.770194	51.360113	5.753139
1878.556000	131.207408	8.744640	9.087191	8.744640	2.476030	30.000000	0.000000	8.770194	51.298629	5.782235
1878.566000	131.107459	8.749507	9.091950	8.749507	2.480065	30.000000	0.000000	8.733688	51.397003	5.830728
1878.576000	131.057390	8.738556	9.080421	8.738556	2.478290	30.000000	0.000000	8.587667	51.458486	5.782235
1878.586000	130.996553	8.734905	9.076446	8.734905	2.478870	30.000000	0.000000	8.660678	51.544563	5.753139
1878.596000	130.915008	8.721520	9.062294	8.721520	2.477234	30.000000	0.000000	8.587667	51.569157	5.782235
1878.606000	130.844399	8.704484	9.044382	8.704484	2.474264	30.000000	0.000000	8.563330	51.655234	5.879222
1878.616000	130.753066	8.681364	9.020089	8.681364	2.470103	30.000000	0.000000	8.551162	51.692124	5.772536
1878.626000	130.711762	8.655810	8.993415	8.655810	2.463920	30.000000	0.000000	8.526825	51.704421	5.830728
1878.636000	130.650899	8.625389	8.961628	8.625389	2.456857	30.000000	0.000000	8.502488	51.815091	5.859824
1878.646000	130.559571	8.599836	8.934810	8.599836	2.451968	30.000000	0.000000	8.514656	51.815091	5.840427
1878.656000	130.399842	8.577932	8.911585	8.577932	2.449892	30.000000	0.000000	8.551162	51.864278	5.869523
1878.666000	130.338968	8.554812	8.887387	8.554812	2.444875	30.000000	0.000000	8.502488	51.888872	5.869523
1878.676000	130.267211	8.548728	8.880856	8.548728	2.445003	30.000000	0.000000	8.526825	51.925762	5.850126
1878.686000	130.196557	8.535343	8.866745	8.535343	2.443011	30.000000	0.000000	8.526825	51.938059	5.743440
1878.696000	130.017319	8.531692	8.862429	8.531692	2.446624	30.000000	0.000000	8.551162	51.974949	5.879222
1878.706000	129.956425	8.529259	8.859723	8.529259	2.447509	30.000000	0.000000	8.538993	51.938059	5.898619
1878.716000	129.895525	8.530475	8.860809	8.530475	2.449441	30.000000	0.000000	8.563330	51.888872	5.908318
1878.726000	129.833552	8.535343	8.865683	8.535343	2.452451	30.000000	0.000000	8.575499	51.888872	5.966510
1878.736000	129.833552	8.545078	8.875795	8.545078	2.455248	30.000000	0.000000	8.599836	51.839685	6.015003
1878.746000	129.833552	8.556029	8.887170	8.556029	2.458395	30.000000	0.000000	8.624172	51.815091	6.044099
1878.756000	129.733563	8.566981	8.898252	8.566981	2.464152	30.000000	0.000000	8.660678	51.778201	6.073195
1878.766000	129.490099	8.587667	8.919022	8.587667	2.476478	30.000000	0.000000	8.709352	51.765905	6.044099
1878.776000	129.318395	8.613221	8.945054	8.613221	2.488359	30.000000	0.000000	8.782362	51.729014	6.092592
1878.786000	129.266226	8.638775	8.971438	8.638775	2.497117	30.000000	0.000000	8.782362	51.729014	6.092592
1878.796000	129.215040	8.663112	8.996560	8.663112	2.505505	30.000000	0.000000	8.794531	51.667531	6.082894
1878.806000	129.182406	8.691099	9.025527	8.691099	2.514466	30.000000	0.000000	8.818868	51.704421	6.111990
1878.816000	129.040988	8.713002	9.047850	8.713002	2.524564	30.000000	0.000000	8.782362	51.692124	6.131387
1878.826000	129.000926	8.731255	9.066684	8.731255	2.530921	30.000000	0.000000	8.758025	51.741311	6.073195
1878.836000	128.959508	8.745857	9.081723	8.745857	2.536260	30.000000	0.000000	8.745857	51.765905	6.170182
1878.846000	128.879026	8.753158	9.089062	8.753158	2.540529	30.000000	0.000000	8.697183	51.802795	6.150785
1878.856000	128.725880	8.756809	9.092392	8.756809	2.545686	30.000000	0.000000	8.697183	51.851982	6.150785
1878.866000	128.674652	8.754375	9.089711	8.754375	2.546349	30.000000	0.000000	8.685015	51.815091	6.179881
1878.876000	128.635602	8.736122	9.070642	8.736122	2.542082	30.000000	0.000000	8.599836	51.876575	6.208977
1878.886000	128.545383	8.728821	9.062791	8.728821	2.542365	30.000000	0.000000	8.709352	51.876575	6.160483
1878.896000	128.381022	8.717870	9.050928	8.717870	2.543556	30.000000	0.000000	8.685015	51.913465	6.150785
1878.906000	128.270330	8.700834	9.032910	8.700834	2.541532	30.000000	0.000000	8.648509	51.876575	6.228374
1878.916000	128.180029	8.686232	9.017481	8.686232	2.539666	30.000000	0.000000	8.636341	51.888872	6.170182
1878.926000	128.079075	8.669196	8.999494	8.669196	2.537363	30.000000	0.000000	8.587667	51.876575	6.208977
1878.936000	127.976604	8.657027	8.986557	8.657027	2.536517	30.000000	0.000000	8.624172	51.864278	6.228374
1878.946000	127.898550	8.647293	8.976219	8.647293	2.535731	30.000000	0.000000	8.599836	51.851982	6.257470
1878.956000	127.818038	8.639991	8.968401	8.639991	2.535720	30.000000	0.000000	8.624172	51.802795	6.325361
1878.966000	127.759508	8.633907	8.961912	8.633907	2.535482	30.000000	0.000000	8.624172	51.778201	6.267169
1878.976000	127.659487	8.638775	8.966666	8.638775	2.539558	30.000000	0.000000	8.648509	51.741311	6.305963
1878.986000	127.569272	8.636341	8.963872	8.636341	2.541229	30.000000	0.000000	8.685015	51.692124	6.228374
1878.996000	127.436547	8.637558	8.964740	8.637558	2.545100	30.000000	0.000000	8.697183	51.679827	6.305963
1879.006000	127.365835	8.648509	8.975896	8.648509	2.550202	30.000000	0.000000	8.758025	51.581454	6.315662
1879.016000	127.278021	8.657027	8.984474	8.657027	2.555044	30.000000	0.000000	8.721520	51.569157	6.315662
1879.026000	127.197499	8.669196	8.996862	8.669196	2.560776	30.000000	0.000000	8.709352	51.544563	6.325361
1879.036000	127.197499	8.682581	9.010753	8.682581	2.564730	30.000000	0.000000	8.758025	51.495377	6.393251
1879.046000	127.106298	8.697183	9.025634	8.697183	2.571476	30.000000	0.000000	8.745857	51.470783	6.344758
1879.056000	126.955063	8.709352	9.037807	8.709352	2.579115	30.000000	0.000000	8.745857	51.433893	6.383553
1879.066000	126.867279	8.730038	9.059010	8.730038	2.587592	30.000000	0.000000	8.831036	51.310926	6.412649
1879.076000	126.767265	8.748291	9.077648	8.748291	2.595688	30.000000	0.000000	8.831036	51.310926	6.412649
1879.086000	126.767265	8.767760	9.097851	8.767760	2.601465	30.000000	0.000000	8.879710	51.310926	6.441745
1879.096000	126.576904	8.792097	9.122526	8.792097	2.613825	30.000000	0.000000	8.940552	51.249442	6.470841
1879.106000	126.473469	8.807916	9.138625	8.807916	2.621326	30.000000	0.000000	8.916215	51.200255	6.461142
1879.116000	126.402755	8.824952	9.156085	8.824952	2.628313	30.000000	0.000000	8.891878	51.138771	6.509636
1879.126000	126.299317	8.844421	9.175969	8.844421	2.636922	30.000000	0.000000	8.904047	51.114178	6.567828
1879.136000	126.237458	8.861457	9.193454	8.861457	2.643686	30.000000	0.000000	8.928384	51.028101	6.577526
1879.146000	126.137441	8.880927	9.213346	8.880927	2.652225	30.000000	0.000000	8.940552	50.991211	6.558129
1879.156000	125.973112	8.897963	9.230514	8.897963	2.661809	30.000000	0.000000	8.916215	50.929727	6.616321
1879.166000	125.924339	8.913781	9.246774	8.913781	2.667878	30.000000	0.000000	8.989226	50.880540	6.626020
1879.176000	125.859846	8.922299	9.255411	8.922299	2.672197	30.000000	0.000000	8.916215	50.855947	6.664814
1879.186000	125.727291	8.936902	9.270148	8.936902	2.680215	30.000000	0.000000	9.025731	50.843650	6.664814
1879.196000	125.666214	8.942986	9.276271	8.942986	2.683721	30.000000	0.000000	9.001394	50.819057	6.626020
1879.206000	125.627277	8.945419	9.278674	8.945419	2.685523	30.000000	0.000000	8.940552	50.794463	6.693910
1879.216000	125.544048	8.949070	9.282203	8.949070	2.688912	30.000000	0.000000	8.928384	50.757573	6.645417
1879.226000	125.472585	8.947853	9.280720	8.947853	2.690515	30.000000	0.000000	8.891878	50.745276	6.655116
1879.236000	125.401666	8.942986	9.275452	8.942986	2.691005	30.000000	0.000000	8.879710	50.732980	6.635718
1879.246000	125.291295	8.929600	9.261228	8.929600	2.690012	30.000000	0.000000	8.806699	50.720683	6.635718
1879.256000	125.159490	8.922299	9.253248	8.922299	2.691436	30.000000	0.000000	8.843205	50.659199	6.684212
1879.266000	125.040029	8.904047	9.233950	8.904047	2.689208	30.000000	0.000000	8.806699	50.585419	6.703609
1879.276000	124.988553	8.893095	9.222434	8.893095	2.687311	30.000000	0.000000	8.806699	50.536232	6.703609
1879.286000	124.898383	8.869975	9.198180	8.869975	2.682791	30.000000	0.000000	8.794531	50.437858	6.519334
1879.296000	124.688771	8.849289	9.176085	8.849289	2.682254	30.000000	0.000000	8.794531	50.290297	6.742404
1879.306000	124.569336	8.833470	9.159316	8.833470	2.680714	30.000000	0.000000	8.782362	50.155033	6.781198
1879.316000	124.428348	8.820084	9.145006	8.820084	2.680490	30.000000	0.000000	8.794531	50.019769	6.790897
1879.326000	124.299318	8.809133	9.133256	8.809133	2.680670	30.000000	0.000000	8.782362	49.872209	6.839391
1879.336000	124.231177	8.800615	9.124217	8.800615	2.679930	30.000000	0.000000	8.794531	49.687758	6.897583
1879.346000	124.060499	8.805482	9.128741	8.805482	2.686054	30.000000	0.000000	8.855373	49.503307	6.907281
1879.356000	123.971002	8.809133	9.132252	8.809133	2.689603	30.000000	0.000000	8.879710	49.269669	6.965473
1879.366000	123.871032	8.818868	9.142038	8.818868	2.695300	30.000000	0.000000	8.904047	49.097515	7.023665
1879.376000	123.761485	8.829819	9.153054	8.829819	2.701637	30.000000	0.000000	8.916215	48.863877	7.033364
1879.386000	123.661529	8.839554	9.162838	8.839554	2.707347	30.000000	0.000000	8.891878	48.704020	7.110953
1879.396000	123.522751	8.849289	9.172502	8.849289	2.714127	30.000000	0.000000	8.891878	48.507272	7.227338
1879.406000	123.481043	8.856590	9.179941	8.856590	2.717509	30.000000	0.000000	8.855373	48.335118	7.246735
1879.416000	123.481043	8.859023	9.182464	8.859023	2.718255	30.000000	0.000000	8.818868	48.187557	7.275831
1879.426000	123.481043	8.860240	9.183725	8.860240	2.718629	30.000000	0.000000	8.794531	48.039997	7.334023
1879.436000	123.400510	8.854156	9.177171	8.854156	2.718968	30.000000	0.000000	8.733688	47.904733	7.343722
1879.446000	123.213638	8.837120	9.158939	8.837120	2.718847	30.000000	0.000000	8.685015	47.769469	7.392215
1879.456000	123.139173	8.806699	9.127182	8.806699	2.711518	30.000000	0.000000	8.575499	47.560424	7.411612
1879.466000	123.048505	8.768977	9.087810	8.768977	2.702365	30.000000	0.000000	8.526825	47.474347	7.440708
1879.476000	122.964483	8.730038	9.047200	8.730038	2.692637	30.000000	0.000000	8.526825	47.474347	7.440708
1879.486000	122.828875	8.686232	9.001392	8.686232	2.682774	30.000000	0.000000	8.453814	47.375974	7.469805
1879.496000	122.767192	8.642425	8.955810	8.642425	2.670896	30.000000	0.000000	8.453814	47.253006	7.527997
1879.506000	122.703101	8.598619	8.910223	8.598619	2.659066	30.000000	0.000000	8.417309	47.191523	7.605586
1879.516000	122.622555	8.551162	8.860807	8.551162	2.646525	30.000000	0.000000	8.344298	47.154632	7.527997
1879.526000	122.580277	8.502488	8.810245	8.502488	2.632575	30.000000	0.000000	8.307793	47.019369	7.527997
1879.536000	122.519129	8.455031	8.760890	8.455031	2.619484	30.000000	0.000000	8.259119	47.007072	7.566791
1879.546000	122.335166	8.411225	8.714960	8.411225	2.610710	30.000000	0.000000	8.246951	46.933291	7.654079
1879.556000	122.235240	8.382020	8.684409	8.382020	2.604244	30.000000	0.000000	8.283456	46.884105	7.624983
1879.566000	122.122464	8.347949	8.648779	8.347949	2.596579	30.000000	0.000000	8.186108	46.785731	7.644381
1879.576000	121.999815	8.313877	8.613124	8.313877	2.589146	30.000000	0.000000	8.186108	46.687357	7.576490
1879.586000	121.880040	8.283456	8.581262	8.283456	2.582753	30.000000	0.000000	8.149603	46.564390	7.498901
1879.596000	121.777099	8.249384	8.545669	8.249384	2.574767	30.000000	0.000000	8.113098	46.429126	7.673477
1879.606000	121.721951	8.216530	8.511476	8.216530	2.565919	30.000000	0.000000	8.088761	46.306158	7.663778
1879.616000	121.622038	8.190976	8.484719	8.190976	2.560482	30.000000	0.000000	8.088761	46.170895	7.751066
1879.626000	121.383365	8.167856	8.460088	8.167856	2.559313	30.000000	0.000000	8.076592	46.035631	7.809258
1879.636000	121.383365	8.147169	8.438662	8.147169	2.552831	30.000000	0.000000	8.052255	45.851180	7.877149
1879.646000	121.211999	8.127700	8.418009	8.127700	2.551061	30.000000	0.000000	8.052255	45.728212	7.886848
1879.656000	121.147737	8.103363	8.392621	8.103363	2.545042	30.000000	0.000000	8.040087	45.592948	7.993533
1879.666000	121.076280	8.087544	8.376035	8.087544	2.541871	30.000000	0.000000	8.027919	45.457684	8.003232
1879.676000	120.992241	8.064424	8.351853	8.064424	2.536713	30.000000	0.000000	7.954908	45.310124	8.032328
1879.686000	120.866381	8.044954	8.331335	8.044954	2.533740	30.000000	0.000000	7.954908	45.224047	8.071122
1879.696000	120.827673	8.026702	8.312324	8.026702	2.528959	30.000000	0.000000	7.930571	45.125673	8.100219
1879.706000	120.744021	8.007232	8.291928	8.007232	2.524910	30.000000	0.000000	7.894066	45.051893	8.139013
1879.716000	120.663489	7.984112	8.267760	7.984112	2.519621	30.000000	0.000000	7.857560	44.990409	8.187507
1879.726000	120.641006	7.956125	8.238716	7.956125	2.511346	30.000000	0.000000	7.796718	44.953519	8.187507
1879.736000	120.582961	7.926921	8.208313	7.926921	2.503561	30.000000	0.000000	7.760213	44.892035	8.216603
1879.746000	120.457085	7.891632	8.171424	7.891632	2.495510	30.000000	0.000000	7.699371	44.892035	8.168109
1879.756000	120.354058	7.852693	8.130821	7.852693	2.485717	30.000000	0.000000	7.650697	44.904332	8.255397
1879.766000	120.354058	7.810103	8.086723	7.810103	2.472236	30.000000	0.000000	7.602023	44.805958	8.265096
1879.776000	120.354058	7.772381	8.047665	7.772381	2.460295	30.000000	0.000000	7.577686	44.818255	8.274795
1879.786000	120.264067	7.716406	7.989464	7.716406	2.444741	30.000000	0.000000	7.395159	44.769068	8.284493
1879.796000	120.028780	7.668949	7.939696	7.668949	2.435331	30.000000	0.000000	7.456002	44.707584	8.303891
1879.806000	119.938382	7.616625	7.885283	7.616625	2.420862	30.000000	0.000000	7.370823	44.670694	8.313589
1879.816000	119.857549	7.564301	7.830898	7.564301	2.406139	30.000000	0.000000	7.334317	44.633804	8.410576
1879.826000	119.754813	7.511976	7.776459	7.511976	2.391903	30.000000	0.000000	7.273475	44.461650	8.391179
1879.836000	119.635660	7.463303	7.725760	7.463303	2.379180	30.000000	0.000000	7.273475	44.461650	8.391179
1879.846000	119.532310	7.418279	7.678884	7.418279	2.367221	30.000000	0.000000	7.249138	44.375573	8.420275
1879.856000	119.461247	7.375690	7.634614	7.375690	2.355267	30.000000	0.000000	7.224801	44.264902	8.507563
1879.866000	119.348306	7.335534	7.592758	7.335534	2.345032	30.000000	0.000000	7.200464	44.080451	8.585152
1879.876000	119.241704	7.294161	7.549661	7.294161	2.334235	30.000000	0.000000	7.163959	43.994374	8.594851
1879.886000	119.138629	7.268608	7.522949	7.268608	2.328398	30.000000	0.000000	7.139622	43.896001	8.565755
1879.896000	119.090133	7.234536	7.487562	7.234536	2.318580	30.000000	0.000000	7.115285	43.809923	8.682139
1879.906000	118.932211	7.206548	7.458196	7.206548	2.313169	30.000000	0.000000	7.090948	43.674660	8.643344
1879.916000	118.838771	7.178561	7.428995	7.178561	2.306283	30.000000	0.000000	7.054443	43.576286	8.691838
1879.926000	118.735685	7.149357	7.398513	7.149357	2.299205	30.000000	0.000000	6.981432	43.514802	8.672440
1879.936000	118.735685	7.117719	7.365772	7.117719	2.289030	30.000000	0.000000	6.957095	43.428725	8.711235
1879.946000	118.584124	7.084864	7.331395	7.084864	2.281824	30.000000	0.000000	6.920590	43.367241	8.701536
1879.956000	118.500318	7.048359	7.293411	7.048359	2.271915	30.000000	0.000000	6.859748	43.256571	8.740331
1879.966000	118.406901	7.011853	7.255406	7.011853	2.262199	30.000000	0.000000	6.835411	43.195087	8.701536
1879.976000	118.345710	6.976565	7.218742	6.976565	2.252150	30.000000	0.000000	6.811074	43.072120	8.701536
1879.986000	118.242609	6.937626	7.178199	6.937626	2.241820	30.000000	0.000000	6.750232	43.072120	8.691838
1879.996000	118.152252	6.893819	7.132655	6.893819	2.229615	30.000000	0.000000	6.677221	42.961450	8.672440
1880.006000	118.110338	6.856097	7.093524	6.856097	2.218315	30.000000	0.000000	6.713726	42.875372	8.691838
1880.016000	118.029873	6.812291	7.048008	6.812291	2.205859	30.000000	0.000000	6.616379	42.826186	8.643344
1880.026000	117.842760	6.773352	7.007275	6.773352	2.197222	30.000000	0.000000	6.592042	42.740109	8.653043
1880.036000	117.762308	6.736846	6.969318	6.736846	2.187079	30.000000	0.000000	6.592042	42.641735	8.507563
1880.046000	117.645902	6.696691	6.927501	6.696691	2.176487	30.000000	0.000000	6.519031	42.531064	8.711235
1880.056000	117.588120	6.660185	6.889602	6.660185	2.165830	30.000000	0.000000	6.494694	42.432690	8.662742
1880.066000	117.504261	6.620029	6.847867	6.620029	2.154513	30.000000	0.000000	6.433852	42.346613	8.633646
1880.076000	117.298011	6.582307	6.808368	6.582307	2.146496	30.000000	0.000000	6.433852	42.260536	8.604550
1880.086000	117.217573	6.542151	6.766647	6.542151	2.135053	30.000000	0.000000	6.348673	42.137569	8.565755
1880.096000	117.147035	6.509296	6.732503	6.509296	2.125773	30.000000	0.000000	6.348673	42.002305	8.556056
1880.106000	116.982726	6.467924	6.689336	6.467924	2.115599	30.000000	0.000000	6.299999	41.879338	8.517262
1880.116000	116.982726	6.439936	6.660391	6.439936	2.106444	30.000000	0.000000	6.336505	41.793261	8.497864
1880.126000	116.869705	6.414383	6.633706	6.414383	2.100363	30.000000	0.000000	6.336505	41.522733	8.556056
1880.136000	116.869705	6.390046	6.608537	6.390046	2.092394	30.000000	0.000000	6.348673	41.522733	8.556056
1880.146000	116.615089	6.371793	6.589087	6.371793	2.091516	30.000000	0.000000	6.336505	41.399766	8.546358
1880.156000	116.521851	6.360841	6.577552	6.360841	2.089786	30.000000	0.000000	6.385178	41.276798	8.623947
1880.166000	116.479896	6.352324	6.568650	6.352324	2.087826	30.000000	0.000000	6.348673	41.153831	8.594851
1880.176000	116.418717	6.342589	6.558447	6.342589	2.085847	30.000000	0.000000	6.336505	41.092348	8.594851
1880.186000	116.338324	6.341372	6.557008	6.341372	2.087050	30.000000	0.000000	6.336505	40.969380	8.614248
1880.196000	116.203123	6.335288	6.550414	6.335288	2.087743	30.000000	0.000000	6.287831	40.920194	8.672440
1880.206000	116.161161	6.331637	6.546545	6.331637	2.087376	30.000000	0.000000	6.263494	40.871007	8.740331
1880.216000	116.099986	6.319469	6.533827	6.319469	2.084581	30.000000	0.000000	6.214820	40.797226	8.750030
1880.226000	116.048127	6.301216	6.514840	6.301216	2.079589	30.000000	0.000000	6.153978	40.748039	8.817921
1880.236000	115.935072	6.270795	6.483136	6.270795	2.071781	30.000000	0.000000	6.044462	40.723446	8.817921
1880.246000	115.870338	6.246458	6.457832	6.246458	2.065014	30.000000	0.000000	6.093136	40.698852	8.808222
1880.256000	115.831936	6.211170	6.421265	6.211170	2.054099	30.000000	0.000000	6.032293	40.686556	8.759729
1880.266000	115.747995	6.175881	6.384599	6.175881	2.044062	30.000000	0.000000	5.995788	40.674259	8.827619
1880.276000	115.686827	6.136942	6.344211	6.136942	2.032356	30.000000	0.000000	5.947114	40.575885	8.720934
1880.286000	115.522521	6.095569	6.301087	6.095569	2.021811	30.000000	0.000000	5.922777	40.551292	8.662742
1880.296000	115.442172	6.059064	6.263178	6.059064	2.011238	30.000000	0.000000	5.922777	40.551292	8.662742
1880.306000	115.329112	6.026209	6.228975	6.026209	2.002480	30.000000	0.000000	5.934946	40.489808	8.672440
1880.316000	115.267950	5.995788	6.197400	5.995788	1.993528	30.000000	0.000000	5.910609	40.342248	8.623947
1880.326000	115.183984	5.970234	6.170809	5.970234	1.986612	30.000000	0.000000	5.898440	40.243874	8.672440
1880.336000	115.061665	5.955632	6.155458	5.955632	1.984052	30.000000	0.000000	5.898440	40.133203	8.575454
1880.346000	114.949250	5.936163	6.135099	5.936163	1.979672	30.000000	0.000000	5.898440	40.059423	8.643344
1880.356000	114.742971	5.922777	6.120831	5.922777	1.979065	30.000000	0.000000	5.898440	39.899566	8.701536
1880.366000	114.681746	5.914259	6.111900	5.914259	1.977362	30.000000	0.000000	5.910609	39.788895	8.720934
1880.376000	114.620596	5.906958	6.104227	5.906958	1.976062	30.000000	0.000000	5.874104	39.665928	8.750030
1880.386000	114.511250	5.906958	6.103997	5.906958	1.978102	30.000000	0.000000	5.922777	39.592147	8.769427
1880.396000	114.450018	5.906958	6.103869	5.906958	1.979245	30.000000	0.000000	5.922777	39.506070	8.798523
1880.406000	114.388973	5.908175	6.104998	5.908175	1.980793	30.000000	0.000000	5.947114	39.383103	8.847017
1880.416000	114.324128	5.909392	6.106119	5.909392	1.982412	30.000000	0.000000	5.922777	39.333916	8.779126
1880.426000	114.262884	5.913043	6.109763	5.913043	1.984781	30.000000	0.000000	5.934946	39.235542	8.837318
1880.436000	114.169639	5.917910	6.114596	5.917910	1.988160	30.000000	0.000000	5.947114	39.198652	8.798523
1880.446000	114.117743	5.922777	6.119516	5.922777	1.990767	30.000000	0.000000	5.947114	39.161762	8.876113
1880.456000	114.037596	5.926428	6.123119	5.926428	1.993496	30.000000	0.000000	5.934946	39.112575	8.837318
1880.466000	113.962832	5.925211	6.121704	5.925211	1.994488	30.000000	0.000000	5.898440	39.075685	8.866414
1880.476000	113.878827	5.926428	6.122784	5.926428	1.996473	30.000000	0.000000	5.886272	39.063388	8.905209
1880.486000	113.878827	5.919127	6.115241	5.919127	1.994013	30.000000	0.000000	5.849767	39.014201	8.788825
1880.496000	113.836963	5.913043	6.108867	5.913043	1.992747	30.000000	0.000000	5.861935	39.063388	8.847017
1880.506000	113.626941	5.905742	6.100883	5.905742	1.994212	30.000000	0.000000	5.874104	38.989608	8.837318
1880.516000	113.543088	5.902091	6.096935	5.902091	1.994547	30.000000	0.000000	5.886272	38.965015	8.817921
1880.526000	113.468288	5.891139	6.085465	5.891139	1.992241	30.000000	0.000000	5.825430	38.952718	8.837318
1880.536000	113.374877	5.886272	6.080242	5.886272	1.992337	30.000000	0.000000	5.898440	38.903531	8.885811
1880.546000	113.326761	5.880188	6.073856	5.880188	1.991174	30.000000	0.000000	5.886272	38.878938	8.905209
1880.556000	113.171722	5.880188	6.073531	5.880188	1.994063	30.000000	0.000000	5.934946	38.866641	8.934305
1880.566000	113.087694	5.880188	6.073355	5.880188	1.995629	30.000000	0.000000	5.898440	38.829751	8.914907
1880.576000	113.087694	5.885055	6.078383	5.885055	1.997281	30.000000	0.000000	5.934946	38.743674	8.953702
1880.586000	113.003662	5.894790	6.088261	5.894790	2.002156	30.000000	0.000000	5.947114	38.780564	8.934305
1880.596000	112.872036	5.903308	6.096781	5.903308	2.007513	30.000000	0.000000	5.947114	38.743674	8.905209
1880.606000	112.781728	5.914259	6.107901	5.914259	2.012931	30.000000	0.000000	5.983620	38.731377	8.885811
1880.616000	112.692356	5.925211	6.119022	5.925211	2.018339	30.000000	0.000000	5.995788	38.694487	8.944003
1880.626000	112.611954	5.943464	6.137701	5.943464	2.026073	30.000000	0.000000	6.007957	38.682190	8.924606
1880.636000	112.456932	5.956849	6.151195	5.956849	2.033567	30.000000	0.000000	6.032293	38.682190	8.953702
1880.646000	112.363718	5.973885	6.168588	5.973885	2.041151	30.000000	0.000000	6.056630	38.633003	8.905209
1880.656000	112.363718	5.986053	6.181153	5.986053	2.045309	30.000000	0.000000	6.056630	38.633003	8.905209
1880.666000	112.270251	5.998222	6.193517	5.998222	2.051247	30.000000	0.000000	6.020125	38.657597	8.905209
1880.676000	112.209167	6.011607	6.207207	6.011607	2.056991	30.000000	0.000000	6.068799	38.608410	8.914907
1880.686000	112.134288	6.026209	6.222123	6.026209	2.063421	30.000000	0.000000	6.093136	38.571519	8.944003
1880.696000	112.041074	6.039594	6.235743	6.039594	2.069793	30.000000	0.000000	6.080967	38.546926	8.963401
1880.706000	111.947131	6.049329	6.245591	6.049329	2.074935	30.000000	0.000000	6.080967	38.510036	8.992497
1880.716000	111.853184	6.060281	6.256694	6.060281	2.080502	30.000000	0.000000	6.105304	38.423959	9.002195
1880.726000	111.754026	6.067582	6.264017	6.067582	2.084922	30.000000	0.000000	6.080967	38.485442	8.953702
1880.736000	111.692963	6.071232	6.267653	6.071232	2.087355	30.000000	0.000000	6.068799	38.411662	9.002195
1880.746000	111.579684	6.078533	6.274944	6.078533	2.092056	30.000000	0.000000	6.129641	38.411662	9.050689
1880.756000	111.537658	6.084618	6.281133	6.084618	2.094963	30.000000	0.000000	6.117473	38.374772	9.021593
1880.766000	111.433821	6.100437	6.297236	6.100437	2.102426	30.000000	0.000000	6.178315	38.337882	9.040990
1880.776000	111.400927	6.110171	6.307213	6.110171	2.106420	30.000000	0.000000	6.166146	38.325585	8.934305
1880.786000	111.316867	6.118689	6.315822	6.118689	2.110994	30.000000	0.000000	6.178315	38.300992	9.099182
1880.796000	111.233904	6.127207	6.324432	6.127207	2.115551	30.000000	0.000000	6.166146	38.276398	9.070086
1880.806000	111.159741	6.143026	6.340597	6.143026	2.122464	30.000000	0.000000	6.239157	38.276398	9.118580
1880.816000	111.094700	6.156412	6.354270	6.156412	2.128364	30.000000	0.000000	6.239157	38.251805	9.099182
1880.826000	111.010639	6.171014	6.369155	6.171014	2.135064	30.000000	0.000000	6.226989	38.214915	9.128278
1880.836000	111.010639	6.189266	6.387994	6.189266	2.141379	30.000000	0.000000	6.251325	38.214915	9.099182
1880.846000	110.837053	6.203868	6.402679	6.203868	2.149863	30.000000	0.000000	6.275662	38.214915	9.118580
1880.856000	110.748961	6.222121	6.421320	6.222121	2.157935	30.000000	0.000000	6.299999	38.190321	9.089484
1880.866000	110.645892	6.239157	6.438671	6.239157	2.165894	30.000000	0.000000	6.348673	38.067354	9.128278
1880.876000	110.561824	6.263494	6.463598	6.263494	2.176021	30.000000	0.000000	6.409515	38.202618	9.128278
1880.886000	110.458764	6.278096	6.478434	6.278096	2.183158	30.000000	0.000000	6.324336	38.153431	9.137977
1880.896000	110.387855	6.303650	6.504643	6.303650	2.193470	30.000000	0.000000	6.421684	38.178024	9.118580
1880.906000	110.326435	6.318252	6.519572	6.318252	2.199790	30.000000	0.000000	6.385178	38.190321	9.128278
1880.916000	110.274512	6.336505	6.538288	6.336505	2.207195	30.000000	0.000000	6.421684	38.202618	9.108881
1880.926000	110.222589	6.354757	6.557003	6.354757	2.214606	30.000000	0.000000	6.409515	38.178024	8.992497
1880.936000	110.151273	6.370576	6.573163	6.370576	2.221569	30.000000	0.000000	6.409515	38.153431	9.157374
1880.946000	110.047421	6.385178	6.587991	6.385178	2.228778	30.000000	0.000000	6.421684	38.165728	9.128278
1880.956000	109.986417	6.397347	6.600406	6.397347	2.234272	30.000000	0.000000	6.421684	38.128837	9.118580
1880.966000	109.874311	6.404648	6.607681	6.404648	2.239115	30.000000	0.000000	6.421684	38.116541	9.108881
1880.976000	109.809207	6.402214	6.605020	6.402214	2.239596	30.000000	0.000000	6.385178	38.079651	9.157374
1880.986000	109.738702	6.409515	6.612390	6.409515	2.243594	30.000000	0.000000	6.397347	38.055057	9.128278
1880.996000	109.650505	6.411949	6.614698	6.411949	2.246253	30.000000	0.000000	6.446021	38.005870	9.108881
1881.006000	109.505912	6.420467	6.623152	6.420467	2.252204	30.000000	0.000000	6.470357	37.821419	9.128278
1881.016000	109.449848	6.425334	6.628043	6.425334	2.255064	30.000000	0.000000	6.470357	37.821419	9.128278
1881.026000	109.369929	6.438720	6.641666	6.438720	2.261407	30.000000	0.000000	6.543368	37.833716	9.147676
1881.036000	109.308480	6.455755	6.659096	6.455755	2.268659	30.000000	0.000000	6.579873	37.784529	9.186470
1881.046000	109.228094	6.476442	6.680246	6.476442	2.277594	30.000000	0.000000	6.628547	37.686155	9.186470
1881.056000	109.167131	6.498345	6.702696	6.498345	2.286565	30.000000	0.000000	6.640716	37.673859	9.118580
1881.066000	109.125100	6.525115	6.730210	6.525115	2.296862	30.000000	0.000000	6.689390	37.636969	9.031291
1881.076000	109.083069	6.554320	6.760233	6.554320	2.308024	30.000000	0.000000	6.677221	37.636969	9.070086
1881.086000	108.975897	6.583524	6.790101	6.583524	2.320566	30.000000	0.000000	6.689390	37.636969	9.079785
1881.096000	108.923981	6.611511	6.818843	6.611511	2.331530	30.000000	0.000000	6.725895	37.612375	9.099182
1881.106000	108.923981	6.635848	6.843943	6.635848	2.340112	30.000000	0.000000	6.713726	37.624672	9.089484
1881.116000	108.733587	6.656535	6.864822	6.656535	2.351466	30.000000	0.000000	6.677221	37.649265	9.079785
1881.126000	108.668433	6.674787	6.883489	6.674787	2.359307	30.000000	0.000000	6.725895	37.636969	9.050689
1881.136000	108.574806	6.686956	6.895813	6.686956	2.365614	30.000000	0.000000	6.701558	37.624672	9.031291
1881.146000	108.499759	6.691823	6.900651	6.691823	2.368945	30.000000	0.000000	6.677221	37.649265	9.060387
1881.156000	108.429805	6.697907	6.906756	6.697907	2.372601	30.000000	0.000000	6.701558	37.575485	9.002195
1881.166000	108.358999	6.700341	6.909095	6.700341	2.374984	30.000000	0.000000	6.713726	37.550892	8.982798
1881.176000	108.358999	6.707642	6.916624	6.707642	2.377572	30.000000	0.000000	6.750232	37.538595	9.011894
1881.186000	108.358999	6.716160	6.925407	6.716160	2.380591	30.000000	0.000000	6.774569	37.452518	9.002195
1881.196000	108.245613	6.722244	6.931406	6.722244	2.385191	30.000000	0.000000	6.786737	37.440221	9.011894
1881.206000	107.933890	6.734413	6.943196	6.734413	2.396244	30.000000	0.000000	6.835411	37.341847	8.973099
1881.216000	107.881980	6.753882	6.963142	6.753882	2.404297	30.000000	0.000000	6.871916	37.304957	8.924606
1881.226000	107.830959	6.768484	6.978072	6.768484	2.410603	30.000000	0.000000	6.871916	37.231177	8.944003
1881.236000	107.788931	6.790388	7.000551	6.790388	2.419320	30.000000	0.000000	6.920590	37.206583	8.973099
1881.246000	107.703982	6.819592	7.030450	6.819592	2.431585	30.000000	0.000000	6.969264	37.120506	8.895510
1881.256000	107.703982	6.852447	7.064320	6.852447	2.443300	30.000000	0.000000	7.030106	37.059023	8.905209
1881.266000	107.643094	6.881651	7.094276	6.881651	2.455059	30.000000	0.000000	7.005769	37.009836	8.914907
1881.276000	107.577290	6.914506	7.127982	6.914506	2.468241	30.000000	0.000000	7.078780	36.972946	8.924606
1881.286000	107.494130	6.947361	7.161643	6.947361	2.481825	30.000000	0.000000	7.103117	36.948352	8.934305
1881.296000	107.391227	6.982649	7.197760	6.982649	2.496740	30.000000	0.000000	7.139622	36.936055	8.759729
1881.306000	107.302842	7.013070	7.228894	7.013070	2.509609	30.000000	0.000000	7.139622	36.936055	8.759729
1881.316000	107.215993	7.036190	7.252505	7.036190	2.519847	30.000000	0.000000	7.103117	36.923759	8.740331
1881.326000	107.070437	7.061744	7.278473	7.061744	2.532304	30.000000	0.000000	7.127454	36.862275	8.643344
1881.336000	106.966903	7.083647	7.300783	7.083647	2.542517	30.000000	0.000000	7.139622	36.862275	8.585152
1881.346000	106.876696	7.105550	7.323126	7.105550	2.552440	30.000000	0.000000	7.188296	36.837682	8.536659
1881.356000	106.776629	7.125020	7.342933	7.125020	2.561728	30.000000	0.000000	7.224801	36.776198	8.517262
1881.366000	106.672851	7.146923	7.365238	7.146923	2.571991	30.000000	0.000000	7.224801	36.727011	8.488166
1881.376000	106.588136	7.163959	7.382575	7.163959	2.580075	30.000000	0.000000	7.249138	36.690121	8.459070
1881.386000	106.527312	7.178561	7.397464	7.178561	2.586740	30.000000	0.000000	7.249138	36.591747	8.420275
1881.396000	106.442588	7.195597	7.414799	7.195597	2.594842	30.000000	0.000000	7.309980	36.542560	8.429974
1881.406000	106.348686	7.206548	7.425839	7.206548	2.600971	30.000000	0.000000	7.249138	36.493373	8.391179
1881.416000	106.348686	7.233319	7.453424	7.233319	2.610633	30.000000	0.000000	7.370823	36.431890	8.410576
1881.426000	106.212066	7.258873	7.479396	7.258873	2.623051	30.000000	0.000000	7.382991	36.345813	8.400877
1881.436000	106.170049	7.283210	7.504362	7.283210	2.632832	30.000000	0.000000	7.382991	36.284329	8.410576
1881.446000	106.104803	7.305113	7.526757	7.305113	2.642286	30.000000	0.000000	7.407328	36.235142	8.332987
1881.456000	106.053871	7.323366	7.545429	7.323366	2.650090	30.000000	0.000000	7.407328	36.124472	8.323288
1881.466000	105.863542	7.340401	7.562475	7.340401	2.660760	30.000000	0.000000	7.395159	36.112175	8.303891
1881.476000	105.808156	7.358654	7.581132	7.358654	2.668690	30.000000	0.000000	7.431665	36.038395	8.265096
1881.486000	105.710757	7.374473	7.597168	7.374473	2.676745	30.000000	0.000000	7.407328	36.001505	8.216603
1881.496000	105.617839	7.385425	7.608202	7.385425	2.682934	30.000000	0.000000	7.419496	35.940021	8.226301
1881.506000	105.551822	7.403677	7.626828	7.403677	2.691142	30.000000	0.000000	7.431665	35.890834	8.168109
1881.516000	105.442923	7.408545	7.631549	7.408545	2.695516	30.000000	0.000000	7.419496	35.829350	8.129315
1881.526000	105.442923	7.412195	7.635309	7.412195	2.696844	30.000000	0.000000	7.419496	35.792460	8.168109
1881.536000	105.286564	7.414629	7.637396	7.414629	2.701473	30.000000	0.000000	7.407328	35.718680	8.109917
1881.546000	105.244562	7.414629	7.637282	7.414629	2.702479	30.000000	0.000000	7.407328	35.681790	8.129315
1881.556000	105.169440	7.407328	7.629560	7.407328	2.701615	30.000000	0.000000	7.334317	35.632603	8.119616
1881.566000	105.095296	7.407328	7.629361	7.407328	2.703390	30.000000	0.000000	7.395159	35.583416	8.090520
1881.576000	105.019371	7.400027	7.621637	7.400027	2.702541	30.000000	0.000000	7.358654	35.571119	8.090520
1881.586000	104.971255	7.390292	7.611481	7.390292	2.700135	30.000000	0.000000	7.309980	35.521932	8.148712
1881.596000	104.909724	7.378124	7.598783	7.378124	2.697156	30.000000	0.000000	7.297812	35.497339	8.080821
1881.606000	104.881147	7.359871	7.579908	7.359871	2.691164	30.000000	0.000000	7.249138	35.411262	8.071122
1881.616000	104.829473	7.339185	7.558466	7.339185	2.684826	30.000000	0.000000	7.212633	35.435855	8.109917
1881.626000	104.764195	7.318498	7.536988	7.318498	2.678803	30.000000	0.000000	7.212633	35.411262	8.061424
1881.636000	104.681192	7.302679	7.520476	7.302679	2.674973	30.000000	0.000000	7.249138	35.349778	8.042026
1881.646000	104.597208	7.279559	7.496444	7.279559	2.668482	30.000000	0.000000	7.176127	35.312888	8.022629
1881.656000	104.401521	7.263740	7.479637	7.263740	2.667282	30.000000	0.000000	7.176127	35.275998	8.022629
1881.666000	104.295242	7.238186	7.453044	7.238186	2.660389	30.000000	0.000000	7.139622	35.263701	7.818957
1881.676000	104.295242	7.218717	7.432996	7.218717	2.653233	30.000000	0.000000	7.163959	35.202218	8.042026
1881.686000	104.295242	7.200464	7.414202	7.200464	2.646524	30.000000	0.000000	7.127454	35.189921	7.993533
1881.696000	103.958616	7.180995	7.393274	7.180995	2.647197	30.000000	0.000000	7.103117	35.128437	7.983834
1881.706000	103.930102	7.166393	7.378166	7.166393	2.642476	30.000000	0.000000	7.103117	35.128437	7.983834
1881.716000	103.906795	7.151790	7.363071	7.151790	2.637632	30.000000	0.000000	7.066611	35.103844	7.983834
1881.726000	103.845137	7.135971	7.346625	7.135971	2.633223	30.000000	0.000000	7.054443	35.103844	7.983834
1881.736000	103.778833	7.106767	7.316387	7.106767	2.623974	30.000000	0.000000	6.957095	35.116141	8.012930
1881.746000	103.718193	7.079997	7.288670	7.079997	2.615481	30.000000	0.000000	6.908422	35.066954	7.964437
1881.756000	103.661722	7.049576	7.257207	7.049576	2.605534	30.000000	0.000000	6.871916	35.202218	8.071122
1881.766000	103.619747	7.017938	7.224530	7.017938	2.594796	30.000000	0.000000	6.823242	35.226811	8.012930
1881.776000	103.577774	6.978999	7.184338	6.978999	2.581348	30.000000	0.000000	6.774569	35.239108	7.983834
1881.786000	103.544614	6.937626	7.141664	6.937626	2.566792	30.000000	0.000000	6.713726	35.275998	7.935341
1881.796000	103.506782	6.895036	7.097727	6.895036	2.551880	30.000000	0.000000	6.677221	35.362075	7.925642
1881.806000	103.452247	6.848796	7.049991	6.848796	2.535978	30.000000	0.000000	6.640716	35.398965	7.838354
1881.816000	103.316968	6.801339	7.000805	6.801339	2.521391	30.000000	0.000000	6.592042	35.460449	7.983834
1881.826000	103.239118	6.749015	6.946754	6.749015	2.503698	30.000000	0.000000	6.531200	35.497339	8.003232
1881.836000	103.137946	6.703992	6.900164	6.703992	2.489198	30.000000	0.000000	6.506863	35.497339	8.051725
1881.846000	103.137946	6.655318	6.850066	6.655318	2.471125	30.000000	0.000000	6.421684	35.558823	8.032328
1881.856000	103.018146	6.599343	6.792165	6.599343	2.452908	30.000000	0.000000	6.312168	35.558823	8.061424
1881.866000	102.828352	6.545802	6.736605	6.545802	2.437043	30.000000	0.000000	6.287831	35.608009	8.090520
1881.876000	102.756939	6.493478	6.682587	6.493478	2.419069	30.000000	0.000000	6.251325	35.620306	8.022629
1881.886000	102.756939	6.448454	6.636252	6.448454	2.402296	30.000000	0.000000	6.263494	35.632603	8.139013
1881.896000	102.601611	6.404648	6.590806	6.404648	2.389209	30.000000	0.000000	6.239157	35.571119	8.109917
1881.906000	102.525465	6.364492	6.549306	6.364492	2.375805	30.000000	0.000000	6.239157	35.632603	8.197205
1881.916000	102.460155	6.327987	6.511590	6.327987	2.363522	30.000000	0.000000	6.226989	35.608009	8.206904
1881.926000	102.385005	6.296349	6.478861	6.296349	2.353243	30.000000	0.000000	6.214820	35.644900	8.216603
1881.936000	102.343051	6.264711	6.446210	6.264711	2.342274	30.000000	0.000000	6.190483	35.681790	8.197205
1881.946000	102.286497	6.240374	6.421039	6.240374	2.334322	30.000000	0.000000	6.178315	35.718680	8.197205
1881.956000	102.244543	6.224555	6.404666	6.224555	2.329255	30.000000	0.000000	6.153978	35.804757	8.168109
1881.966000	102.182973	6.212386	6.392006	6.212386	2.325946	30.000000	0.000000	6.166146	35.829350	8.119616
1881.976000	102.131185	6.199001	6.378116	6.199001	2.321979	30.000000	0.000000	6.117473	35.890834	8.071122
1881.986000	102.065873	6.181965	6.360440	6.181965	2.316911	30.000000	0.000000	6.093136	35.927724	8.090520
1881.996000	101.985936	6.167363	6.345236	6.167363	2.313044	30.000000	0.000000	6.093136	35.927724	8.090520
1882.006000	101.898300	6.140593	6.317496	6.140593	2.304755	30.000000	0.000000	5.971451	35.927724	8.090520
1882.016000	101.697368	6.123557	6.299519	6.123557	2.302368	30.000000	0.000000	6.056630	35.878537	8.119616
1882.026000	101.655431	6.105304	6.280648	6.105304	2.296340	30.000000	0.000000	6.032293	35.866241	8.226301
1882.036000	101.589042	6.091919	6.266731	6.091919	2.292623	30.000000	0.000000	6.056630	35.804757	8.177808
1882.046000	101.523725	6.080967	6.255319	6.080967	2.289796	30.000000	0.000000	6.068799	35.792460	8.206904
1882.056000	101.368454	6.072449	6.246212	6.072449	2.289662	30.000000	0.000000	6.068799	35.767867	8.274795
1882.066000	101.368454	6.063931	6.237450	6.063931	2.286450	30.000000	0.000000	6.080967	35.730977	8.352384
1882.076000	101.228012	6.057847	6.230880	6.057847	2.286930	30.000000	0.000000	6.056630	35.755570	8.371781
1882.086000	101.181231	6.057847	6.230776	6.057847	2.287854	30.000000	0.000000	6.093136	35.767867	8.371781
1882.096000	101.107195	6.057847	6.230611	6.057847	2.289317	30.000000	0.000000	6.093136	35.829350	8.362083
1882.106000	101.060411	6.071232	6.244274	6.071232	2.295302	30.000000	0.000000	6.105304	35.915428	8.255397
1882.116000	101.060411	6.072449	6.245526	6.072449	2.295762	30.000000	0.000000	6.068799	36.026098	8.206904
1882.126000	101.028317	6.072449	6.245454	6.072449	2.296398	30.000000	0.000000	6.032293	36.013801	8.168109
1882.136000	100.985270	6.067582	6.240352	6.067582	2.295410	30.000000	0.000000	6.007957	36.087582	8.080821
1882.146000	100.878029	6.055413	6.227599	6.055413	2.292926	30.000000	0.000000	5.947114	36.136769	8.022629
1882.156000	100.801743	6.048112	6.219921	6.048112	2.291667	30.000000	0.000000	5.995788	36.173659	8.071122
1882.166000	100.719046	6.043245	6.214732	6.043245	2.291455	30.000000	0.000000	6.032293	36.210549	8.042026
1882.176000	100.592157	6.043245	6.214450	6.043245	2.293959	30.000000	0.000000	6.056630	36.222846	8.109917
1882.186000	100.492429	6.038378	6.209224	6.038378	2.294078	30.000000	0.000000	6.044462	36.210549	7.964437
1882.196000	100.411230	6.039594	6.210295	6.039594	2.296143	30.000000	0.000000	6.105304	36.124472	7.983834
1882.206000	100.270758	6.039594	6.209983	6.039594	2.298916	30.000000	0.000000	6.105304	36.075285	8.012930
1882.216000	100.195594	6.045679	6.216072	6.045679	2.302717	30.000000	0.000000	6.129641	36.050691	8.003232
1882.226000	100.092138	6.062715	6.233358	6.062715	2.311257	30.000000	0.000000	6.202652	35.952318	7.974136
1882.236000	100.092138	6.082184	6.253375	6.082184	2.318679	30.000000	0.000000	6.202652	35.890834	8.051725
1882.246000	100.092138	6.115039	6.287155	6.115039	2.331204	30.000000	0.000000	6.275662	35.817054	8.032328
1882.256000	99.763225	6.145460	6.317689	6.145460	2.349414	30.000000	0.000000	6.299999	35.743273	7.935341
1882.266000	99.741013	6.173447	6.346410	6.173447	2.360563	30.000000	0.000000	6.312168	35.718680	8.080821
1882.276000	99.708938	6.199001	6.372606	6.199001	2.370985	30.000000	0.000000	6.312168	35.669493	8.042026
1882.286000	99.662077	6.226989	6.401270	6.226989	2.382644	30.000000	0.000000	6.324336	35.669493	8.032328
1882.296000	99.559773	6.248892	6.423551	6.248892	2.393118	30.000000	0.000000	6.324336	35.657196	7.993533
1882.306000	99.536339	6.270795	6.446013	6.270795	2.401988	30.000000	0.000000	6.324336	35.681790	7.974136
1882.316000	99.447592	6.286614	6.462068	6.286614	2.409874	30.000000	0.000000	6.287831	35.743273	7.935341
1882.326000	99.395912	6.298782	6.474456	6.298782	2.415605	30.000000	0.000000	6.324336	35.767867	7.954738
1882.336000	99.320724	6.312168	6.488040	6.312168	2.422293	30.000000	0.000000	6.336505	35.841647	7.857752
1882.346000	99.265218	6.313385	6.489162	6.313385	2.423908	30.000000	0.000000	6.287831	35.755570	7.906245
1882.356000	99.199910	6.313385	6.489010	6.313385	2.425259	30.000000	0.000000	6.299999	35.940021	7.828656
1882.366000	99.123529	6.310951	6.486331	6.310951	2.425904	30.000000	0.000000	6.287831	35.940021	7.818957
1882.376000	99.049604	6.306083	6.481156	6.306083	2.425561	30.000000	0.000000	6.263494	35.976911	7.731669
1882.386000	98.941155	6.303650	6.478403	6.303650	2.426867	30.000000	0.000000	6.299999	35.940021	7.751066
1882.396000	98.837747	6.301216	6.475662	6.301216	2.428067	30.000000	0.000000	6.299999	35.940021	7.751066
1882.406000	98.742951	6.301216	6.475441	6.301216	2.430026	30.000000	0.000000	6.324336	35.940021	7.683175
1882.416000	98.629659	6.304867	6.478929	6.304867	2.433778	30.000000	0.000000	6.324336	35.817054	7.789861
1882.426000	98.572951	6.307300	6.481298	6.307300	2.435891	30.000000	0.000000	6.348673	35.743273	7.789861
1882.436000	98.449873	6.313385	6.487264	6.313385	2.440792	30.000000	0.000000	6.397347	35.657196	7.848053
1882.446000	98.346504	6.319469	6.493274	6.319469	2.445289	30.000000	0.000000	6.348673	35.595713	7.886848
1882.456000	98.261511	6.331637	6.505579	6.331637	2.451765	30.000000	0.000000	6.421684	35.472746	7.954738
1882.466000	98.082948	6.347456	6.521414	6.347456	2.461614	30.000000	0.000000	6.446021	35.386668	7.964437
1882.476000	98.082948	6.365709	6.540166	6.365709	2.468693	30.000000	0.000000	6.446021	35.263701	8.051725
1882.486000	97.964706	6.385178	6.559891	6.385178	2.478725	30.000000	0.000000	6.494694	35.177624	7.993533
1882.496000	97.909191	6.408298	6.583512	6.408298	2.488869	30.000000	0.000000	6.531200	35.054657	8.042026
1882.506000	97.809282	6.432635	6.608277	6.432635	2.500434	30.000000	0.000000	6.567705	34.943987	8.061424
1882.516000	97.717099	6.456972	6.633058	6.456972	2.511852	30.000000	0.000000	6.567705	34.870206	8.129315
1882.526000	97.622337	6.478875	6.655331	6.478875	2.522392	30.000000	0.000000	6.567705	34.747239	8.119616
1882.536000	97.555669	6.495911	6.672671	6.495911	2.530449	30.000000	0.000000	6.567705	34.648865	8.119616
1882.546000	97.437421	6.520248	6.697385	6.520248	2.542467	30.000000	0.000000	6.592042	34.575085	8.139013
1882.556000	97.380677	6.537284	6.714746	6.537284	2.550331	30.000000	0.000000	6.592042	34.476711	8.119616
1882.566000	97.320573	6.554320	6.732099	6.554320	2.558273	30.000000	0.000000	6.616379	34.439821	8.148712
1882.576000	97.320573	6.567705	6.745847	6.567705	2.563498	30.000000	0.000000	6.579873	34.353744	8.139013
1882.586000	97.320573	6.579873	6.758346	6.579873	2.568247	30.000000	0.000000	6.616379	34.279964	8.080821
1882.596000	97.014845	6.579873	6.757601	6.579873	2.574873	30.000000	0.000000	6.531200	34.206183	8.080821
1882.606000	96.926074	6.584741	6.762383	6.584741	2.578703	30.000000	0.000000	6.616379	34.169293	8.051725
1882.616000	96.884297	6.587175	6.764780	6.587175	2.580563	30.000000	0.000000	6.592042	34.132403	8.051725
1882.626000	96.762074	6.589608	6.766981	6.589608	2.584171	30.000000	0.000000	6.592042	34.046326	8.090520
1882.636000	96.686842	6.589608	6.766798	6.589608	2.585806	30.000000	0.000000	6.567705	33.960249	7.993533
1882.646000	96.633859	6.589608	6.766668	6.589608	2.586957	30.000000	0.000000	6.592042	33.911062	8.022629
1882.656000	96.530607	6.589608	6.766416	6.589608	2.589201	30.000000	0.000000	6.592042	33.837282	8.022629
1882.666000	96.384144	6.587175	6.763559	6.587175	2.591427	30.000000	0.000000	6.592042	33.603644	7.993533
1882.676000	96.297684	6.588391	6.764597	6.588391	2.593786	30.000000	0.000000	6.592042	33.603644	7.993533
1882.686000	96.195718	6.588391	6.764348	6.588391	2.596003	30.000000	0.000000	6.616379	33.480677	7.964437
1882.696000	96.081279	6.599343	6.775312	6.599343	2.602812	30.000000	0.000000	6.640716	33.357709	7.964437
1882.706000	96.004786	6.606644	6.782620	6.606644	2.607360	30.000000	0.000000	6.689390	33.074885	7.915944
1882.716000	95.878079	6.621246	6.797299	6.621246	2.615894	30.000000	0.000000	6.738063	32.915028	7.945040
1882.726000	95.696889	6.638282	6.814341	6.638282	2.626599	30.000000	0.000000	6.762400	32.755170	7.954738
1882.736000	95.617251	6.657752	6.834130	6.657752	2.636056	30.000000	0.000000	6.762400	32.583016	7.935341
1882.746000	95.522300	6.679655	6.856378	6.679655	2.646825	30.000000	0.000000	6.811074	32.447752	7.974136
1882.756000	95.460870	6.701558	6.878707	6.701558	2.656865	30.000000	0.000000	6.811074	32.287895	7.983834
1882.766000	95.372106	6.723461	6.900968	6.723461	2.667523	30.000000	0.000000	6.811074	32.140334	7.974136
1882.776000	95.305324	6.746581	6.924531	6.746581	2.678186	30.000000	0.000000	6.823242	32.078850	7.974136
1882.786000	95.206837	6.764834	6.943017	6.764834	2.687636	30.000000	0.000000	6.798906	31.857509	7.925642
1882.796000	95.163581	6.778219	6.956646	6.778219	2.693924	30.000000	0.000000	6.774569	31.796026	7.974136
1882.806000	95.068907	6.786737	6.965149	6.786737	2.699436	30.000000	0.000000	6.774569	31.722246	7.983834
1882.816000	94.998298	6.792821	6.971214	6.792821	2.703444	30.000000	0.000000	6.798906	31.513201	7.974136
1882.826000	94.891385	6.790388	6.968446	6.790388	2.704879	30.000000	0.000000	6.738063	31.439421	7.915944
1882.836000	94.891385	6.791604	6.969695	6.791604	2.705364	30.000000	0.000000	6.774569	31.304157	7.915944
1882.846000	94.782901	6.786737	6.964426	6.786737	2.705863	30.000000	0.000000	6.762400	31.181190	7.663778
1882.856000	94.674416	6.783087	6.960406	6.783087	2.706846	30.000000	0.000000	6.774569	31.009036	7.867450
1882.866000	94.467155	6.775785	6.952391	6.775785	2.708586	30.000000	0.000000	6.738063	30.849178	7.857752
1882.876000	94.335122	6.769701	6.945815	6.769701	2.709118	30.000000	0.000000	6.762400	30.750805	7.818957
1882.886000	94.230775	6.764834	6.940558	6.764834	2.709511	30.000000	0.000000	6.750232	30.603244	7.915944
1882.896000	94.124805	6.759966	6.935297	6.759966	2.709938	30.000000	0.000000	6.725895	30.443387	7.915944
1882.906000	94.020147	6.758750	6.933784	6.758750	2.711797	30.000000	0.000000	6.762400	30.283529	7.896546
1882.916000	93.972637	6.753882	6.928671	6.753882	2.710909	30.000000	0.000000	6.750232	30.123672	7.964437
1882.926000	93.972637	6.752665	6.927423	6.752665	2.710421	30.000000	0.000000	6.725895	29.951518	7.915944
1882.936000	93.896104	6.747798	6.922237	6.747798	2.710181	30.000000	0.000000	6.725895	29.754770	7.906245
1882.946000	93.615665	6.742931	6.916538	6.742931	2.714506	30.000000	0.000000	6.713726	29.717880	7.974136
1882.956000	93.615665	6.736846	6.910297	6.736846	2.712056	30.000000	0.000000	6.713726	29.558023	7.915944
1882.966000	93.526928	6.733196	6.906329	6.733196	2.712572	30.000000	0.000000	6.701558	29.410462	7.935341
1882.976000	93.442019	6.723461	6.896131	6.723461	2.710547	30.000000	0.000000	6.665053	29.312088	7.945040
1882.986000	93.255302	6.714943	6.886925	6.714943	2.711280	30.000000	0.000000	6.665053	29.189121	7.886848
1882.996000	93.213701	6.706425	6.878085	6.706425	2.708769	30.000000	0.000000	6.640716	29.066154	7.780162
1883.006000	93.152366	6.691823	6.862956	6.691823	2.704236	30.000000	0.000000	6.616379	28.930890	7.848053
1883.016000	93.067472	6.679655	6.850264	6.679655	2.701204	30.000000	0.000000	6.628547	28.820220	7.906245
1883.026000	92.957291	6.668703	6.838758	6.668703	2.699220	30.000000	0.000000	6.616379	28.648065	7.848053
1883.036000	92.857164	6.656535	6.826030	6.656535	2.696512	30.000000	0.000000	6.604210	28.500505	7.809258
1883.046000	92.730700	6.640716	6.809494	6.640716	2.692900	30.000000	0.000000	6.555537	28.352944	7.799560
1883.056000	92.612174	6.627330	6.795474	6.627330	2.690087	30.000000	0.000000	6.579873	28.205383	7.741367
1883.066000	92.509315	6.617596	6.785238	6.617596	2.688402	30.000000	0.000000	6.604210	28.057823	7.857752
1883.076000	92.403370	6.612728	6.779985	6.612728	2.688759	30.000000	0.000000	6.616379	27.885669	7.915944
1883.086000	92.351745	6.604210	6.771124	6.604210	2.686431	30.000000	0.000000	6.579873	27.664328	7.818957
1883.096000	92.275197	6.598126	6.764696	6.598126	2.685640	30.000000	0.000000	6.579873	27.578251	7.848053
1883.106000	92.094063	6.592042	6.758011	6.592042	2.687143	30.000000	0.000000	6.555537	27.258536	7.751066
1883.116000	92.027163	6.578657	6.744124	6.578657	2.683155	30.000000	0.000000	6.494694	27.135569	7.789861
1883.126000	91.928380	6.566488	6.731406	6.566488	2.680355	30.000000	0.000000	6.494694	27.135569	7.789861
1883.136000	91.829596	6.553103	6.717442	6.553103	2.677051	30.000000	0.000000	6.470357	26.988008	7.789861
1883.146000	91.730812	6.542151	6.705973	6.542151	2.674733	30.000000	0.000000	6.446021	26.729777	7.673477
1883.156000	91.612751	6.527549	6.690716	6.527549	2.671335	30.000000	0.000000	6.433852	26.582216	7.605586
1883.166000	91.559788	6.503212	6.665642	6.503212	2.662525	30.000000	0.000000	6.360841	26.434656	7.576490
1883.176000	91.483237	6.477659	6.639264	6.477659	2.653719	30.000000	0.000000	6.360841	26.311689	7.547394
1883.186000	91.374826	6.452105	6.612810	6.452105	2.645586	30.000000	0.000000	6.324336	26.188721	7.469805
1883.196000	91.274682	6.422901	6.582636	6.422901	2.635760	30.000000	0.000000	6.287831	26.041161	7.547394
1883.206000	91.099353	6.397347	6.556026	6.397347	2.629021	30.000000	0.000000	6.299999	25.893600	7.489202
1883.216000	90.981330	6.374227	6.532050	6.374227	2.622035	30.000000	0.000000	6.263494	25.758336	7.518298
1883.226000	90.846088	6.347456	6.504293	6.347456	2.613893	30.000000	0.000000	6.226989	25.549292	7.421311
1883.236000	90.761293	6.325553	6.481647	6.325553	2.606667	30.000000	0.000000	6.251325	25.475512	7.460106
1883.246000	90.761293	6.304867	6.460451	6.304867	2.598143	30.000000	0.000000	6.239157	25.315654	7.363119
1883.256000	90.694357	6.287831	6.442836	6.287831	2.592530	30.000000	0.000000	6.263494	25.180390	7.334023
1883.266000	90.613936	6.270795	6.425191	6.270795	2.587194	30.000000	0.000000	6.190483	25.069720	7.334023
1883.276000	90.613936	6.253759	6.407735	6.253759	2.580165	30.000000	0.000000	6.190483	24.897566	7.343722
1883.286000	90.349454	6.240374	6.393399	6.240374	2.580167	30.000000	0.000000	6.190483	24.786895	7.334023
1883.296000	90.211730	6.223338	6.375623	6.223338	2.575994	30.000000	0.000000	6.117473	24.713115	7.334023
1883.306000	90.115437	6.205085	6.356699	6.205085	2.570440	30.000000	0.000000	6.117473	24.614741	7.363119
1883.316000	90.063889	6.185616	6.336633	6.185616	2.563443	30.000000	0.000000	6.068799	24.479477	7.314626
1883.326000	89.987339	6.169797	6.320213	6.169797	2.557965	30.000000	0.000000	6.068799	24.405697	7.256434
1883.336000	89.888584	6.145460	6.294765	6.145460	2.545986	30.000000	0.000000	6.007957	24.319620	7.217639
1883.346000	89.821630	6.121123	6.269488	6.121123	2.534629	30.000000	0.000000	5.995788	24.159763	7.188543
1883.356000	89.694949	6.091919	6.238918	6.091919	2.520135	30.000000	0.000000	5.971451	24.061389	7.178844
1883.366000	89.642014	6.070016	6.216213	6.070016	2.510075	30.000000	0.000000	5.971451	24.061389	7.178844
1883.376000	89.551449	6.044462	6.189578	6.044462	2.497806	30.000000	0.000000	5.934946	23.938422	7.120652
1883.386000	89.466729	6.011607	6.155500	6.011607	2.482646	30.000000	0.000000	5.861935	23.827751	7.140050
1883.396000	89.466729	5.986053	6.129335	5.986053	2.472093	30.000000	0.000000	5.861935	23.741674	7.140050
1883.406000	89.323231	5.956849	6.098704	5.956849	2.457376	30.000000	0.000000	5.825430	23.692487	7.140050
1883.416000	89.123753	5.928862	6.069045	5.928862	2.442158	30.000000	0.000000	5.788924	23.557223	7.110953
1883.426000	89.123753	5.899657	6.039150	5.899657	2.430128	30.000000	0.000000	5.776756	23.471146	6.955775
1883.436000	88.982258	5.872887	6.011040	5.872887	2.416522	30.000000	0.000000	5.740251	23.409663	7.101255
1883.446000	88.891679	5.846116	5.983190	5.846116	2.403864	30.000000	0.000000	5.728082	23.298992	7.101255
1883.456000	88.806997	5.819346	5.955373	5.819346	2.391328	30.000000	0.000000	5.703745	23.200618	7.110953
1883.466000	88.704818	5.788924	5.923738	5.788924	2.376993	30.000000	0.000000	5.667240	23.126838	7.081857
1883.476000	88.604666	5.762154	5.895854	5.762154	2.364212	30.000000	0.000000	5.667240	23.053058	7.091556
1883.486000	88.528132	5.741468	5.874315	5.741468	2.354362	30.000000	0.000000	5.655072	22.979278	7.043063
1883.496000	88.486825	5.718347	5.850459	5.718347	2.344150	30.000000	0.000000	5.630735	22.868607	7.062460
1883.506000	88.419854	5.697661	5.828971	5.697661	2.334488	30.000000	0.000000	5.618566	22.782530	7.043063
1883.516000	88.246785	5.680625	5.810709	5.680625	2.324464	30.000000	0.000000	5.618566	22.610376	7.013967
1883.526000	88.148069	5.663589	5.792809	5.663589	2.315762	30.000000	0.000000	5.606398	22.634969	6.984871
1883.536000	88.087049	5.648987	5.777582	5.648987	2.308725	30.000000	0.000000	5.594229	22.512002	6.984871
1883.546000	87.990790	5.640469	5.768410	5.640469	2.303564	30.000000	0.000000	5.642903	22.413628	6.965473
1883.556000	87.819460	5.628301	5.755149	5.628301	2.295613	30.000000	0.000000	5.582061	22.352145	6.936377
1883.566000	87.728862	5.617349	5.743520	5.617349	2.289573	30.000000	0.000000	5.557724	22.253771	6.965473
1883.576000	87.669973	5.603964	5.729555	5.603964	2.283098	30.000000	0.000000	5.533387	22.167694	6.829692
1883.586000	87.585370	5.591796	5.716713	5.591796	2.276679	30.000000	0.000000	5.533387	22.081617	6.858788
1883.596000	87.451409	5.578410	5.702397	5.578410	2.268921	30.000000	0.000000	5.496882	22.007837	6.849089
1883.606000	87.337177	5.567459	5.690664	5.567459	2.262503	30.000000	0.000000	5.509050	21.909463	6.752102
1883.616000	87.337177	5.556507	5.679470	5.556507	2.258053	30.000000	0.000000	5.509050	21.811089	6.732705
1883.626000	87.337177	5.541905	5.664545	5.541905	2.252119	30.000000	0.000000	5.460376	21.700419	6.645417
1883.636000	87.052074	5.533387	5.654505	5.533387	2.243791	30.000000	0.000000	5.509050	21.503671	6.596924
1883.646000	86.998506	5.520002	5.640577	5.520002	2.237451	30.000000	0.000000	5.509050	21.503671	6.596924
1883.656000	86.922016	5.512701	5.632761	5.512701	2.233192	30.000000	0.000000	5.509050	21.393001	6.655116
1883.666000	86.845529	5.507833	5.627432	5.507833	2.229922	30.000000	0.000000	5.509050	21.233143	6.567828
1883.676000	86.635090	5.505400	5.623968	5.505400	2.225367	30.000000	0.000000	5.509050	21.048693	6.606622
1883.686000	86.568112	5.506617	5.624900	5.506617	2.224724	30.000000	0.000000	5.545556	20.938022	6.577526
1883.696000	86.495037	5.504183	5.622075	5.504183	2.222502	30.000000	0.000000	5.472545	20.851945	6.596924
1883.706000	86.453877	5.501749	5.619398	5.501749	2.220823	30.000000	0.000000	5.484713	20.765868	6.635718
1883.716000	86.280681	5.495665	5.612382	5.495665	2.215438	30.000000	0.000000	5.448208	20.679791	6.499937
1883.726000	86.204202	5.494448	5.610785	5.494448	2.213655	30.000000	0.000000	5.448208	20.606011	6.606622
1883.736000	86.156944	5.489581	5.605596	5.489581	2.210896	30.000000	0.000000	5.460376	20.556824	6.558129
1883.746000	86.066329	5.482280	5.597722	5.482280	2.206429	30.000000	0.000000	5.436040	20.470747	6.548430
1883.756000	85.987435	5.472545	5.587419	5.472545	2.201184	30.000000	0.000000	5.411703	20.421560	6.548430
1883.766000	85.873197	5.453075	5.567017	5.453075	2.191439	30.000000	0.000000	5.314355	20.372373	6.567828
1883.776000	85.873197	5.439690	5.553352	5.439690	2.186060	30.000000	0.000000	5.375197	20.310889	6.558129
1883.786000	85.758959	5.419004	5.531713	5.419004	2.175845	30.000000	0.000000	5.338692	20.249406	6.509636
1883.796000	85.666088	5.400751	5.512658	5.400751	2.166976	30.000000	0.000000	5.290018	20.212516	6.577526
1883.806000	85.561904	5.380065	5.491072	5.380065	2.156956	30.000000	0.000000	5.277850	20.077252	6.432046
1883.816000	85.448267	5.361812	5.471931	5.361812	2.147769	30.000000	0.000000	5.265681	20.052658	6.470841
1883.826000	85.343637	5.345993	5.455317	5.345993	2.139716	30.000000	0.000000	5.290018	19.991175	6.441745
1883.836000	85.239492	5.327740	5.436225	5.327740	2.130710	30.000000	0.000000	5.277850	19.806724	6.402950
1883.846000	85.086616	5.311921	5.419403	5.311921	2.121894	30.000000	0.000000	5.277850	19.757537	6.412649
1883.856000	85.019641	5.298536	5.405449	5.298536	2.115460	30.000000	0.000000	5.277850	19.634570	6.432046
1883.866000	84.936992	5.296102	5.402599	5.296102	2.113148	30.000000	0.000000	5.290018	19.536196	6.441745
1883.876000	84.830702	5.290018	5.395921	5.290018	2.108998	30.000000	0.000000	5.314355	19.376339	6.441745
1883.886000	84.714753	5.286368	5.391683	5.286368	2.105667	30.000000	0.000000	5.302187	19.339449	6.432046
1883.896000	84.639210	5.285151	5.390107	5.285151	2.103960	30.000000	0.000000	5.277850	19.167295	6.402950
1883.906000	84.531217	5.283934	5.388388	5.283934	2.101730	30.000000	0.000000	5.265681	19.068921	6.354457
1883.916000	84.436702	5.276633	5.380525	5.276633	2.097301	30.000000	0.000000	5.192671	18.958250	6.364155
1883.926000	84.339837	5.275416	5.378857	5.275416	2.095255	30.000000	0.000000	5.277850	18.847580	6.305963
1883.936000	84.231872	5.272982	5.375899	5.272982	2.092549	30.000000	0.000000	5.253513	18.761503	6.257470
1883.946000	84.231872	5.270549	5.373417	5.270549	2.091583	30.000000	0.000000	5.253513	18.626239	6.325361
1883.956000	84.038865	5.266898	5.368845	5.266898	2.087029	30.000000	0.000000	5.241344	18.540162	6.179881
1883.966000	83.971892	5.263248	5.364829	5.263248	2.084506	30.000000	0.000000	5.253513	18.454085	6.228374
1883.976000	83.971892	5.254730	5.356147	5.254730	2.081133	30.000000	0.000000	5.229176	18.368008	6.218675
1883.986000	83.971892	5.248645	5.349945	5.248645	2.078723	30.000000	0.000000	5.241344	18.281931	6.189579
1883.996000	83.722194	5.242561	5.342649	5.242561	2.072318	30.000000	0.000000	5.217007	18.183557	6.199278
1884.006000	83.639485	5.237694	5.337327	5.237694	2.069073	30.000000	0.000000	5.217007	18.134370	6.179881
1884.016000	83.548886	5.238911	5.338171	5.238911	2.068106	30.000000	0.000000	5.204839	18.060590	6.141086
1884.026000	83.472499	5.232826	5.331637	5.232826	2.064486	30.000000	0.000000	5.217007	17.962216	6.073195
1884.036000	83.389779	5.225525	5.323838	5.225525	2.060288	30.000000	0.000000	5.180502	17.826952	6.044099
1884.046000	83.289771	5.219441	5.317203	5.219441	2.056299	30.000000	0.000000	5.192671	17.777765	6.102291
1884.056000	83.213396	5.214574	5.311913	5.214574	2.053168	30.000000	0.000000	5.192671	17.777765	6.102291
1884.066000	83.051853	5.198755	5.295098	5.198755	2.044383	30.000000	0.000000	5.095323	17.716282	6.102291
1884.076000	82.984891	5.191454	5.287372	5.191454	2.040453	30.000000	0.000000	5.156165	17.568721	6.073195
1884.086000	82.850973	5.180502	5.275640	5.180502	2.034038	30.000000	0.000000	5.131828	17.470347	6.131387
1884.096000	82.801256	5.171984	5.266751	5.171984	2.029911	30.000000	0.000000	5.131828	17.396567	6.053798
1884.106000	82.693437	5.162249	5.256374	5.162249	2.024398	30.000000	0.000000	5.119660	17.273600	6.111990
1884.116000	82.590987	5.152515	5.246023	5.152515	2.018976	30.000000	0.000000	5.107491	17.224413	6.131387
1884.126000	82.531861	5.142780	5.235858	5.142780	2.014237	30.000000	0.000000	5.119660	17.162929	6.092592
1884.136000	82.441282	5.135479	5.228038	5.135479	2.009964	30.000000	0.000000	5.107491	17.101446	6.092592
1884.146000	82.394032	5.126961	5.219165	5.126961	2.005894	30.000000	0.000000	5.107491	17.015369	6.044099
1884.156000	82.236512	5.117226	5.208585	5.117226	1.999638	30.000000	0.000000	5.095323	16.929292	6.044099
1884.166000	82.157673	5.116009	5.207011	5.116009	1.997938	30.000000	0.000000	5.083155	16.855511	5.956811
1884.176000	82.098531	5.106275	5.196852	5.106275	1.993220	30.000000	0.000000	5.058818	16.818621	6.053798
1884.186000	81.988263	5.101407	5.191431	5.101407	1.989613	30.000000	0.000000	5.083155	16.732544	6.034400
1884.196000	81.911948	5.094106	5.183678	5.094106	1.985586	30.000000	0.000000	5.058818	16.658764	6.044099
1884.206000	81.801696	5.086805	5.175782	5.086805	1.981040	30.000000	0.000000	5.046649	16.646467	6.015003
1884.216000	81.742546	5.079504	5.168104	5.079504	1.977285	30.000000	0.000000	5.034481	16.535797	6.034400
1884.226000	81.667830	5.069769	5.157885	5.069769	1.972348	30.000000	0.000000	5.022312	16.462016	5.976208
1884.236000	81.558885	5.061251	5.148762	5.061251	1.967363	30.000000	0.000000	5.022312	16.400533	6.005304
1884.246000	81.406832	5.049083	5.135746	5.049083	1.960308	30.000000	0.000000	4.985807	16.351346	5.947112
1884.256000	81.322786	5.040565	5.126730	5.040565	1.955718	30.000000	0.000000	5.010144	16.228379	5.947112
1884.266000	81.272977	5.030830	5.116622	5.030830	1.951183	30.000000	0.000000	4.985807	16.179192	5.956811
1884.276000	81.194120	5.023529	5.108868	5.023529	1.947152	30.000000	0.000000	4.985807	16.117708	5.947112
1884.286000	80.991763	5.016228	5.100602	5.016228	1.941252	30.000000	0.000000	5.010144	16.043928	5.976208
1884.296000	80.885358	5.008927	5.092736	5.008927	1.936815	30.000000	0.000000	4.985807	15.982444	5.956811
1884.306000	80.792218	5.002843	5.086165	5.002843	1.933054	30.000000	0.000000	4.985807	15.908664	5.956811
1884.316000	80.792218	4.994325	5.077505	4.994325	1.929763	30.000000	0.000000	4.949302	15.822587	5.801632
1884.326000	80.613491	4.987024	5.069345	4.987024	1.924249	30.000000	0.000000	4.949302	15.736510	5.966510
1884.336000	80.546584	4.978506	5.060411	4.978506	1.919956	30.000000	0.000000	4.937133	15.650433	5.956811
1884.346000	80.479681	4.980940	5.062609	4.980940	1.919889	30.000000	0.000000	5.010144	15.588949	5.927715
1884.356000	80.412780	4.980940	5.062333	4.980940	1.918883	30.000000	0.000000	5.010144	15.490576	5.908318
1884.366000	80.310308	4.989458	5.070568	4.989458	1.920621	30.000000	0.000000	5.070986	15.453685	5.898619
1884.376000	80.200130	5.006493	5.087425	5.006493	1.925515	30.000000	0.000000	5.156165	15.367608	5.898619
1884.386000	80.121271	5.027180	5.108118	5.027180	1.932275	30.000000	0.000000	5.217007	15.293828	5.879222
1884.396000	80.006827	5.062468	5.143496	5.062468	1.944092	30.000000	0.000000	5.338692	15.244641	5.840427
1884.406000	79.966217	5.105058	5.186596	5.105058	1.959822	30.000000	0.000000	5.411703	15.133971	5.879222
1884.416000	79.907025	5.158599	5.240741	5.158599	1.979456	30.000000	0.000000	5.484713	15.183158	5.830728
1884.426000	79.874113	5.220658	5.303646	5.220658	2.002752	30.000000	0.000000	5.569892	15.146267	5.821030
1884.436000	79.817599	5.290018	5.373862	5.290018	2.028459	30.000000	0.000000	5.630735	15.121674	5.724043
1884.446000	79.717806	5.350860	5.435228	5.350860	2.050181	30.000000	0.000000	5.618566	15.146267	5.597960
1884.456000	79.717806	5.411703	5.497030	5.411703	2.073492	30.000000	0.000000	5.618566	15.146267	5.597960
1884.466000	79.627325	5.468894	5.554715	5.468894	2.093915	30.000000	0.000000	5.642903	15.158564	5.403986
1884.476000	79.577420	5.520002	5.606397	5.520002	2.112654	30.000000	0.000000	5.667240	15.195454	5.500973
1884.486000	79.388187	5.565025	5.651257	5.565025	2.126716	30.000000	0.000000	5.667240	15.146267	5.365192
1884.496000	79.278058	5.597880	5.684113	5.597880	2.137418	30.000000	0.000000	5.667240	15.121674	5.423384
1884.506000	79.191541	5.618566	5.704718	5.618566	2.143855	30.000000	0.000000	5.618566	15.084784	5.423384
1884.516000	79.069423	5.635602	5.721448	5.635602	2.148286	30.000000	0.000000	5.655072	15.023300	5.423384
1884.526000	78.917020	5.644120	5.729388	5.644120	2.148949	30.000000	0.000000	5.655072	14.961817	5.365192
1884.536000	78.747709	5.647770	5.732307	5.647770	2.147467	30.000000	0.000000	5.667240	14.875740	5.394288
1884.546000	78.674158	5.650204	5.734436	5.650204	2.147145	30.000000	0.000000	5.642903	14.715882	5.403986
1884.556000	78.554817	5.655072	5.738821	5.655072	2.146969	30.000000	0.000000	5.667240	14.715882	5.433082
1884.566000	78.355510	5.656288	5.739130	5.656288	2.144049	30.000000	0.000000	5.655072	14.568322	5.530069
1884.576000	78.237071	5.659939	5.742283	5.659939	2.143423	30.000000	0.000000	5.703745	14.433058	5.510672
1884.586000	78.104274	5.658722	5.740432	5.658722	2.140710	30.000000	0.000000	5.655072	14.346981	5.539768
1884.596000	78.013867	5.659939	5.741246	5.659939	2.139638	30.000000	0.000000	5.679408	14.236310	5.549467
1884.606000	77.932706	5.663589	5.744572	5.663589	2.139641	30.000000	0.000000	5.655072	14.076453	5.471877
1884.616000	77.827438	5.663589	5.744084	5.663589	2.137856	30.000000	0.000000	5.655072	13.990376	5.627056
1884.626000	77.734600	5.657505	5.737482	5.657505	2.133987	30.000000	0.000000	5.594229	13.916595	5.636755
1884.636000	77.668586	5.647770	5.727304	5.647770	2.129200	30.000000	0.000000	5.569892	13.793628	5.617357
1884.646000	77.571412	5.636819	5.715750	5.636819	2.123433	30.000000	0.000000	5.533387	13.744441	5.646453
1884.656000	77.512178	5.618566	5.696969	5.618566	2.115561	30.000000	0.000000	5.484713	13.682958	5.597960
1884.666000	77.512178	5.595446	5.673526	5.595446	2.106856	30.000000	0.000000	5.423871	13.621474	5.568864
1884.676000	77.512178	5.563808	5.641447	5.563808	2.094943	30.000000	0.000000	5.387366	13.572287	5.607659
1884.686000	77.421805	5.533387	5.610192	5.533387	2.081993	30.000000	0.000000	5.350860	13.523100	5.578563
1884.696000	77.205435	5.494448	5.569739	5.494448	2.063789	30.000000	0.000000	5.290018	13.350946	5.559165
1884.706000	77.091023	5.456726	5.530989	5.456726	2.047755	30.000000	0.000000	5.277850	13.400133	5.559165
1884.716000	76.974218	5.411703	5.484836	5.411703	2.028972	30.000000	0.000000	5.204839	13.277166	5.568864
1884.726000	76.860307	5.376414	5.448570	5.376414	2.013913	30.000000	0.000000	5.241344	13.178792	5.588261
1884.736000	76.760227	5.337475	5.408672	5.337475	1.997734	30.000000	0.000000	5.180502	13.080419	5.568864
1884.746000	76.660703	5.298536	5.368783	5.298536	1.981586	30.000000	0.000000	5.143997	12.994342	5.597960
1884.756000	76.584174	5.271765	5.341328	5.271765	1.970371	30.000000	0.000000	5.217007	12.895968	5.471877
1884.766000	76.368890	5.242561	5.310817	5.242561	1.956092	30.000000	0.000000	5.131828	12.785297	5.646453
1884.776000	76.244576	5.219441	5.286866	5.219441	1.945532	30.000000	0.000000	5.156165	12.674627	5.617357
1884.786000	76.134024	5.197538	5.264211	5.197538	1.935657	30.000000	0.000000	5.131828	12.588550	5.646453
1884.796000	76.010349	5.182936	5.248899	5.182936	1.928311	30.000000	0.000000	5.143997	12.477879	5.714344
1884.806000	75.943636	5.165900	5.231366	5.165900	1.920947	30.000000	0.000000	5.107491	12.305725	5.714344
1884.816000	75.843482	5.157382	5.222319	5.157382	1.916243	30.000000	0.000000	5.119660	12.244242	5.685248
1884.826000	75.755439	5.145214	5.209628	5.145214	1.910374	30.000000	0.000000	5.119660	12.244242	5.685248
1884.836000	75.674331	5.134262	5.198200	5.134262	1.905070	30.000000	0.000000	5.070986	12.170461	5.704645
1884.846000	75.567981	5.128178	5.191596	5.128178	1.901191	30.000000	0.000000	5.083155	12.035197	5.724043
1884.856000	75.517386	5.109925	5.172908	5.109925	1.893656	30.000000	0.000000	5.034481	11.961417	5.636755
1884.866000	75.412020	5.102624	5.165079	5.102624	1.889353	30.000000	0.000000	5.058818	11.887637	5.627056
1884.876000	75.324059	5.085588	5.147471	5.085588	1.881716	30.000000	0.000000	4.985807	11.863043	5.636755
1884.886000	75.277927	5.069769	5.131269	5.069769	1.875168	30.000000	0.000000	4.973639	11.789263	5.627056
1884.896000	75.166434	5.057601	5.118495	5.057601	1.868993	30.000000	0.000000	5.022312	11.690889	5.549467
1884.906000	75.100215	5.047866	5.108371	5.047866	1.864404	30.000000	0.000000	5.010144	11.653999	5.607659
1884.916000	75.003014	5.038131	5.098121	5.038131	1.859355	30.000000	0.000000	5.022312	11.629406	5.559165
1884.926000	74.936353	5.032047	5.091692	5.032047	1.856115	30.000000	0.000000	5.058818	11.506439	5.539768
1884.936000	74.848280	5.027180	5.086408	5.027180	1.853006	30.000000	0.000000	5.022312	11.457252	5.530069
1884.946000	74.738519	5.013794	5.072418	5.013794	1.846441	30.000000	0.000000	4.949302	11.408065	5.568864
1884.956000	74.626114	5.008927	5.067036	5.008927	1.842980	30.000000	0.000000	4.985807	11.346581	5.500973
1884.966000	74.514663	4.995542	5.053044	4.995542	1.836405	30.000000	0.000000	4.924965	11.260504	5.462178
1884.976000	74.417468	4.994325	5.051419	4.994325	1.834520	30.000000	0.000000	4.973639	11.211317	5.549467
1884.986000	74.322527	4.989458	5.046112	4.989458	1.831330	30.000000	0.000000	4.924965	11.063757	5.452480
1884.996000	74.255907	4.983373	5.039690	4.983373	1.828114	30.000000	0.000000	4.961470	11.026867	5.462178
1885.006000	74.150508	4.974855	5.030651	4.974855	1.823438	30.000000	0.000000	4.924965	10.953086	5.491275
1885.016000	74.046475	4.966337	5.021619	4.966337	1.818787	30.000000	0.000000	4.937133	10.891603	5.452480
1885.026000	73.979874	4.950519	5.005356	4.950519	1.812019	30.000000	0.000000	4.900628	10.805526	5.462178
1885.036000	73.979874	4.938350	4.993053	4.938350	1.807565	30.000000	0.000000	4.900628	10.744042	5.481576
1885.046000	73.709844	4.935916	4.989513	4.935916	1.802734	30.000000	0.000000	4.924965	10.621075	5.500973
1885.056000	73.593107	4.933483	4.986587	4.933483	1.800144	30.000000	0.000000	4.961470	10.547294	5.481576
1885.066000	73.508109	4.940784	4.993627	4.940784	1.801568	30.000000	0.000000	4.997975	10.522701	5.471877
1885.076000	73.470150	4.949302	5.002084	4.949302	1.804119	30.000000	0.000000	5.058818	10.412031	5.491275
1885.086000	73.372968	4.971205	5.023831	4.971205	1.810677	30.000000	0.000000	5.143997	10.387437	5.481576
1885.096000	73.155921	4.990674	5.042631	4.990674	1.814573	30.000000	0.000000	5.156165	10.325954	5.452480
1885.106000	73.072080	5.033264	5.085323	5.033264	1.828813	30.000000	0.000000	5.350860	10.276767	5.413685
1885.116000	73.036363	5.084371	5.136813	5.084371	1.846848	30.000000	0.000000	5.448208	10.227580	5.384589
1885.126000	72.988433	5.152515	5.205459	5.152515	1.870872	30.000000	0.000000	5.582061	10.215283	5.403986
1885.136000	72.945403	5.227959	5.281497	5.227959	1.897603	30.000000	0.000000	5.655072	10.190690	5.248808
1885.146000	72.867746	5.308271	5.362299	5.308271	1.925539	30.000000	0.000000	5.728082	10.239877	5.180917
1885.156000	72.853289	5.393450	5.448282	5.393450	1.956207	30.000000	0.000000	5.813261	10.239877	5.122725
1885.166000	72.803110	5.478629	5.534105	5.478629	1.986292	30.000000	0.000000	5.849767	10.252173	5.103327
1885.176000	72.752784	5.561375	5.617463	5.561375	2.015467	30.000000	0.000000	5.886272	10.289063	5.035437
1885.186000	72.709903	5.639253	5.695931	5.639253	2.042978	30.000000	0.000000	5.922777	10.362844	5.006341
1885.196000	72.600496	5.714697	5.771629	5.714697	2.068468	30.000000	0.000000	5.910609	10.375140	4.928751
1885.206000	72.541274	5.773105	5.830344	5.773105	2.088603	30.000000	0.000000	5.934946	10.412031	4.851162
1885.216000	72.458559	5.816912	5.874197	5.816912	2.103035	30.000000	0.000000	5.886272	10.412031	4.802668
1885.226000	72.360313	5.847333	5.904455	5.847333	2.112343	30.000000	0.000000	5.886272	10.412031	4.802668
1885.236000	72.265375	5.870453	5.927352	5.870453	2.119056	30.000000	0.000000	5.886272	10.424327	4.725079
1885.246000	72.172186	5.877754	5.934282	5.877754	2.120081	30.000000	0.000000	5.801093	10.375140	4.725079
1885.256000	72.005319	5.882622	5.938406	5.882622	2.118951	30.000000	0.000000	5.861935	10.239877	4.686284
1885.266000	71.831233	5.882622	5.937582	5.882622	2.115942	30.000000	0.000000	5.849767	10.129206	4.763874
1885.276000	71.831233	5.882622	5.937582	5.882622	2.115942	30.000000	0.000000	5.886272	10.067722	4.686284
1885.286000	71.656083	5.878971	5.933069	5.878971	2.111606	30.000000	0.000000	5.886272	9.895568	4.763874
1885.296000	71.447458	5.876537	5.929628	5.876537	2.107134	30.000000	0.000000	5.886272	9.809491	4.812367
1885.306000	71.352577	5.871670	5.924269	5.871670	2.103754	30.000000	0.000000	5.886272	9.711118	4.841463
1885.316000	71.254387	5.875320	5.927489	5.875320	2.103371	30.000000	0.000000	5.922777	9.600447	4.889957
1885.326000	71.186231	5.876537	5.928395	5.876537	2.102632	30.000000	0.000000	5.898440	9.477480	4.986943
1885.336000	71.064569	5.876537	5.927821	5.876537	2.100537	30.000000	0.000000	5.886272	9.415996	5.093629
1885.346000	71.007139	5.882622	5.933687	5.882622	2.101722	30.000000	0.000000	5.861935	9.317623	5.054834
1885.356000	70.886543	5.881405	5.931891	5.881405	2.099210	30.000000	0.000000	5.849767	9.305326	5.345794
1885.366000	70.771596	5.875320	5.925213	5.875320	2.095061	30.000000	0.000000	5.788924	9.194655	5.413685
1885.376000	70.771596	5.864369	5.914168	5.864369	2.091156	30.000000	0.000000	5.776756	9.194655	5.549467
1885.386000	70.686746	5.840032	5.889228	5.840032	2.081027	30.000000	0.000000	5.642903	9.145469	5.656152
1885.396000	70.551550	5.813261	5.861602	5.813261	2.069188	30.000000	0.000000	5.618566	9.157765	5.772536
1885.406000	70.501319	5.777973	5.825787	5.777973	2.055779	30.000000	0.000000	5.533387	9.145469	5.869523
1885.416000	70.461605	5.731733	5.778982	5.731733	2.038661	30.000000	0.000000	5.460376	9.170062	6.015003
1885.426000	70.421889	5.678192	5.724819	5.678192	2.018958	30.000000	0.000000	5.363029	9.231546	6.121688
1885.436000	70.395096	5.616133	5.662130	5.616133	1.996452	30.000000	0.000000	5.265681	9.182359	6.228374
1885.446000	70.348214	5.546772	5.591993	5.546772	1.971035	30.000000	0.000000	5.168334	9.317623	6.247771
1885.456000	70.289035	5.470111	5.514448	5.470111	1.942847	30.000000	0.000000	5.083155	9.354513	6.286566
1885.466000	70.181816	5.395884	5.439156	5.395884	1.914793	30.000000	0.000000	5.046649	9.415996	6.325361
1885.476000	70.181816	5.305837	5.348387	5.305837	1.882839	30.000000	0.000000	4.876291	9.440590	6.305963
1885.486000	70.167927	5.226742	5.268600	5.226742	1.854559	30.000000	0.000000	4.851954	9.465183	6.354457
1885.496000	70.113823	5.143997	5.184969	5.143997	1.824386	30.000000	0.000000	4.791112	9.477480	6.238073
1885.506000	70.022941	5.062468	5.102423	5.062468	1.794127	30.000000	0.000000	4.718101	9.489777	6.422347
1885.516000	70.022941	4.984590	5.023930	4.984590	1.766527	30.000000	0.000000	4.681596	9.403700	6.441745
1885.526000	69.833365	4.914013	4.952051	4.914013	1.738795	30.000000	0.000000	4.657259	9.342216	6.470841
1885.536000	69.686019	4.849520	4.886488	4.849520	1.713890	30.000000	0.000000	4.620754	9.280732	6.490238
1885.546000	69.279613	4.793546	4.828531	4.793546	1.688428	30.000000	0.000000	4.608585	9.194655	6.432046
1885.556000	69.112861	4.747305	4.781322	4.747305	1.669835	30.000000	0.000000	4.620754	9.096282	6.480540
1885.566000	69.028667	4.705933	4.739337	4.705933	1.654129	30.000000	0.000000	4.632922	8.973314	6.548430
1885.576000	68.915821	4.690114	4.722984	4.690114	1.647028	30.000000	0.000000	4.718101	8.862644	6.558129
1885.586000	68.698067	4.688897	4.720945	4.688897	1.643630	30.000000	0.000000	4.839786	8.665897	6.635718
1885.596000	68.586497	4.693764	4.725428	4.693764	1.643813	30.000000	0.000000	4.839786	8.665897	6.635718
1885.606000	68.512845	4.733920	4.765578	4.733920	1.656863	30.000000	0.000000	5.119660	8.432259	6.635718
1885.616000	68.416285	4.782594	4.814209	4.782594	1.672557	30.000000	0.000000	5.168334	8.358479	6.606622
1885.626000	68.316530	4.848304	4.879968	4.848304	1.694131	30.000000	0.000000	5.314355	8.309292	6.538732
1885.636000	68.277611	4.931049	4.963102	4.931049	1.722487	30.000000	0.000000	5.448208	8.272402	6.344758
1885.646000	68.272306	5.025963	5.058611	5.025963	1.755565	30.000000	0.000000	5.557724	8.223215	6.480540
1885.656000	68.294321	5.130612	5.164030	5.130612	1.792446	30.000000	0.000000	5.667240	8.260105	6.344758
1885.666000	68.313678	5.244995	5.279239	5.244995	1.832703	30.000000	0.000000	5.776756	8.272402	6.267169
1885.676000	68.323371	5.360595	5.395635	5.360595	1.873247	30.000000	0.000000	5.874104	8.309292	6.179881
1885.686000	68.325584	5.471328	5.507101	5.471328	1.911977	30.000000	0.000000	5.947114	8.321588	6.053798
1885.696000	68.273529	5.589362	5.625676	5.589362	1.952379	30.000000	0.000000	6.020125	8.395369	5.937414
1885.706000	68.215766	5.685493	5.722170	5.685493	1.985004	30.000000	0.000000	6.080967	8.456852	5.859824
1885.716000	68.123563	5.780407	5.817272	5.780407	2.016595	30.000000	0.000000	6.117473	8.493742	5.772536
1885.726000	68.123563	5.861935	5.899321	5.861935	2.045037	30.000000	0.000000	6.129641	8.469149	5.636755
1885.736000	68.123563	5.931295	5.969123	5.931295	2.069235	30.000000	0.000000	6.141809	8.579819	5.568864
1885.746000	67.721429	5.988487	6.024766	5.988487	2.082201	30.000000	0.000000	6.129641	8.579819	5.491275
1885.756000	67.660610	6.040811	6.077116	6.040811	2.099329	30.000000	0.000000	6.190483	8.579819	5.384589
1885.766000	67.506242	6.078533	6.114320	6.078533	2.109719	30.000000	0.000000	6.153978	8.518336	5.297301
1885.776000	67.389873	6.110171	6.145580	6.110171	2.118640	30.000000	0.000000	6.190483	8.481446	5.268205
1885.786000	67.181788	6.136942	6.171493	6.136942	2.124225	30.000000	0.000000	6.214820	8.419962	5.074231
1885.796000	67.026135	6.157628	6.191536	6.157628	2.128611	30.000000	0.000000	6.226989	8.321588	5.171218
1885.806000	66.843547	6.174664	6.207773	6.174664	2.131240	30.000000	0.000000	6.251325	8.223215	5.142122
1885.816000	66.843547	6.192917	6.226123	6.192917	2.137540	30.000000	0.000000	6.299999	8.112544	5.132423
1885.826000	66.633152	6.212386	6.244662	6.212386	2.140482	30.000000	0.000000	6.324336	8.014170	5.103327
1885.836000	66.633152	6.233073	6.265456	6.233073	2.147609	30.000000	0.000000	6.348673	7.903500	5.122725
1885.846000	66.576125	6.256193	6.288414	6.256193	2.154545	30.000000	0.000000	6.360841	7.780533	5.132423
1885.856000	66.532029	6.276879	6.308988	6.276879	2.160869	30.000000	0.000000	6.397347	7.657566	5.161520
1885.866000	66.318853	6.299999	6.331164	6.299999	2.164950	30.000000	0.000000	6.385178	7.399334	5.297301
1885.876000	66.268575	6.319469	6.350479	6.319469	2.170724	30.000000	0.000000	6.385178	7.399334	5.297301
1885.886000	66.194974	6.334071	6.364784	6.334071	2.174394	30.000000	0.000000	6.360841	7.337851	5.336096
1885.896000	66.059452	6.343806	6.373887	6.343806	2.175256	30.000000	0.000000	6.324336	7.276367	5.355493
1885.906000	65.848175	6.346239	6.375273	6.346239	2.172224	30.000000	0.000000	6.275662	7.104213	5.365192
1885.916000	65.766936	6.345022	6.373644	6.345022	2.170322	30.000000	0.000000	6.287831	7.030433	5.394288
1885.926000	65.704249	6.341372	6.369663	6.341372	2.167928	30.000000	0.000000	6.287831	6.981246	5.239109
1885.936000	65.625931	6.330420	6.358271	6.330420	2.162756	30.000000	0.000000	6.239157	6.919762	5.326397
1885.946000	65.590225	6.313385	6.340983	6.313385	2.156286	30.000000	0.000000	6.190483	6.895169	5.307000
1885.956000	65.525377	6.290264	6.317440	6.290264	2.147215	30.000000	0.000000	6.166146	6.833685	5.336096
1885.966000	65.427720	6.263494	6.290071	6.263494	2.136316	30.000000	0.000000	6.117473	6.796795	5.384589
1885.976000	65.330053	6.230639	6.256597	6.230639	2.123359	30.000000	0.000000	6.056630	6.759905	5.394288
1885.986000	65.157794	6.192917	6.217878	6.192917	2.107434	30.000000	0.000000	5.983620	6.673828	5.413685
1885.996000	65.157794	6.158845	6.183669	6.158845	2.095840	30.000000	0.000000	5.983620	6.612344	5.403986
1886.006000	65.009098	6.123557	6.147521	6.123557	2.081213	30.000000	0.000000	5.922777	6.600048	5.481576
1886.016000	64.939532	6.083401	6.106875	6.083401	2.066348	30.000000	0.000000	5.886272	6.477081	5.423384
1886.026000	64.826542	6.038378	6.061141	6.038378	2.049095	30.000000	0.000000	5.837598	6.440190	5.403986
1886.036000	64.734678	5.995788	6.017957	5.995788	2.033060	30.000000	0.000000	5.813261	6.452487	5.423384
1886.046000	64.634118	5.956849	5.978403	5.956849	2.018136	30.000000	0.000000	5.801093	6.378707	5.442781
1886.056000	64.524872	5.915476	5.936372	5.915476	2.002264	30.000000	0.000000	5.752419	6.341817	5.423384
1886.066000	64.405045	5.876537	5.896742	5.876537	1.987063	30.000000	0.000000	5.728082	6.292630	5.462178
1886.076000	64.405045	5.842466	5.862553	5.842466	1.975542	30.000000	0.000000	5.715914	6.206553	5.384589
1886.086000	64.405045	5.812045	5.832028	5.812045	1.965256	30.000000	0.000000	5.679408	6.181959	5.578563
1886.096000	64.029445	5.781623	5.799796	5.781623	1.948742	30.000000	0.000000	5.679408	6.095882	5.549467
1886.106000	64.029445	5.756070	5.774162	5.756070	1.940129	30.000000	0.000000	5.667240	6.071289	5.568864
1886.116000	63.900003	5.731733	5.749167	5.731733	1.929800	30.000000	0.000000	5.642903	6.022102	5.588261
1886.126000	63.814038	5.703745	5.720709	5.703745	1.918972	30.000000	0.000000	5.557724	5.972915	5.646453
1886.136000	63.738672	5.679408	5.695964	5.679408	1.909558	30.000000	0.000000	5.569892	5.936025	5.675549
1886.146000	63.607260	5.655072	5.670974	5.655072	1.899248	30.000000	0.000000	5.557724	5.886838	5.656152
1886.156000	63.521295	5.631952	5.647409	5.631952	1.890098	30.000000	0.000000	5.521219	5.813058	5.724043
1886.166000	63.419936	5.608831	5.623780	5.608831	1.880712	30.000000	0.000000	5.496882	5.714684	5.743440
1886.176000	63.349375	5.586928	5.601510	5.586928	1.872240	30.000000	0.000000	5.496882	5.726981	5.811331
1886.186000	63.151497	5.566242	5.579907	5.566242	1.862159	30.000000	0.000000	5.472545	5.690091	5.811331
1886.196000	63.038496	5.546772	5.559899	5.546772	1.853854	30.000000	0.000000	5.484713	5.640904	5.830728
1886.206000	62.963918	5.516351	5.529084	5.516351	1.842511	30.000000	0.000000	5.363029	5.604013	5.840427
1886.216000	62.890452	5.493231	5.505595	5.493231	1.833636	30.000000	0.000000	5.411703	5.554827	5.830728
1886.226000	62.775332	5.473762	5.485589	5.473762	1.825338	30.000000	0.000000	5.363029	5.530233	5.665851
1886.236000	62.721183	5.453075	5.464627	5.453075	1.817597	30.000000	0.000000	5.363029	5.481046	5.859824
1886.246000	62.620652	5.432389	5.443470	5.432389	1.809143	30.000000	0.000000	5.350860	5.431859	5.821030
1886.256000	62.524101	5.412919	5.423552	5.412919	1.801168	30.000000	0.000000	5.326524	5.382673	5.811331
1886.266000	62.279041	5.393450	5.403012	5.393450	1.790921	30.000000	0.000000	5.302187	5.272002	5.830728
1886.276000	62.228783	5.376414	5.385735	5.376414	1.784494	30.000000	0.000000	5.326524	5.247409	5.859824
1886.286000	62.121809	5.361812	5.370660	5.361812	1.778013	30.000000	0.000000	5.326524	5.247409	5.859824
1886.296000	62.035900	5.347210	5.355676	5.347210	1.771862	30.000000	0.000000	5.338692	5.198222	5.859824
1886.306000	61.973794	5.352077	5.360291	5.352077	1.772528	30.000000	0.000000	5.411703	5.038364	5.850126
1886.316000	61.871180	5.354511	5.362300	5.354511	1.771770	30.000000	0.000000	5.436040	5.038364	5.879222
1886.326000	61.743571	5.361812	5.369079	5.361812	1.772238	30.000000	0.000000	5.436040	5.038364	5.879222
1886.336000	61.743571	5.373980	5.381264	5.373980	1.776260	30.000000	0.000000	5.484713	4.989178	5.869523
1886.346000	61.494412	5.388583	5.394840	5.388583	1.777267	30.000000	0.000000	5.496882	4.939991	5.869523
1886.356000	61.358274	5.409269	5.414977	5.409269	1.781997	30.000000	0.000000	5.533387	4.878507	5.869523
1886.366000	61.272955	5.433606	5.438978	5.433606	1.788697	30.000000	0.000000	5.545556	4.829320	5.772536
1886.376000	61.166600	5.456726	5.461670	5.456726	1.794659	30.000000	0.000000	5.557724	4.829320	5.859824
1886.386000	61.108386	5.479846	5.484562	5.479846	1.801356	30.000000	0.000000	5.557724	4.743243	5.830728
1886.396000	61.041645	5.499315	5.503763	5.499315	1.806714	30.000000	0.000000	5.533387	4.743243	5.840427
1886.406000	60.941162	5.507833	5.511858	5.507833	1.807941	30.000000	0.000000	5.496882	4.706353	5.840427
1886.416000	60.878393	5.521219	5.524983	5.521219	1.811351	30.000000	0.000000	5.569892	4.657166	5.821030
1886.426000	60.878393	5.533387	5.537160	5.533387	1.815344	30.000000	0.000000	5.557724	4.620276	5.782235
1886.436000	60.752855	5.540688	5.543926	5.540688	1.815765	30.000000	0.000000	5.557724	4.583386	5.830728
1886.446000	60.481358	5.549206	5.551278	5.549206	1.814284	30.000000	0.000000	5.582061	4.546496	5.743440
1886.456000	60.403988	5.554073	5.555814	5.554073	1.814658	30.000000	0.000000	5.582061	4.509606	5.743440
1886.466000	60.297414	5.560158	5.561440	5.560158	1.814967	30.000000	0.000000	5.606398	4.521902	5.762837
1886.476000	60.220040	5.567459	5.568409	5.567459	1.816130	30.000000	0.000000	5.630735	4.448122	5.772536
1886.486000	60.111004	5.577194	5.577674	5.577194	1.817583	30.000000	0.000000	5.655072	4.448122	5.801632
1886.496000	59.974932	5.591796	5.591687	5.591796	1.820188	30.000000	0.000000	5.679408	4.398935	5.850126
1886.506000	59.826326	5.614916	5.614160	5.614916	1.825353	30.000000	0.000000	5.728082	4.337451	5.869523
1886.516000	59.727949	5.630735	5.629548	5.630735	1.828929	30.000000	0.000000	5.728082	4.325155	5.830728
1886.526000	59.629579	5.648987	5.647366	5.648987	1.833286	30.000000	0.000000	5.740251	4.325155	5.869523
1886.536000	59.539659	5.668457	5.666435	5.668457	1.838164	30.000000	0.000000	5.752419	4.226781	5.879222
1886.546000	59.462285	5.685493	5.683125	5.685493	1.842445	30.000000	0.000000	5.752419	4.202188	5.869523
1886.556000	59.351864	5.694011	5.691153	5.694011	1.843429	30.000000	0.000000	5.667240	4.153001	5.888920
1886.566000	59.234920	5.711046	5.707663	5.711046	1.847058	30.000000	0.000000	5.776756	4.140704	5.918016
1886.576000	59.075716	5.725649	5.721552	5.725649	1.849207	30.000000	0.000000	5.776756	4.128407	5.927715
1886.586000	58.985783	5.735383	5.730881	5.735383	1.850896	30.000000	0.000000	5.752419	4.079220	5.985907
1886.596000	58.906202	5.747552	5.742687	5.747552	1.853533	30.000000	0.000000	5.801093	4.005440	5.937414
1886.606000	58.745392	5.751202	5.745620	5.751202	1.852102	30.000000	0.000000	5.764588	3.993143	5.976208
1886.616000	58.624047	5.758503	5.752374	5.758503	1.852483	30.000000	0.000000	5.801093	3.956253	6.015003
1886.626000	58.624047	5.764588	5.758452	5.764588	1.854440	30.000000	0.000000	5.801093	3.907066	6.034400
1886.636000	58.530142	5.770672	5.764112	5.770672	1.854871	30.000000	0.000000	5.813261	3.894770	6.015003
1886.646000	58.448800	5.776756	5.769826	5.776756	1.855503	30.000000	0.000000	5.813261	3.870176	6.044099
1886.656000	58.327708	5.792575	5.785085	5.792575	1.858608	30.000000	0.000000	5.825430	3.808693	5.985907
1886.666000	58.200156	5.797442	5.789376	5.797442	1.858088	30.000000	0.000000	5.825430	3.796396	6.015003
1886.676000	58.074654	5.804743	5.796106	5.804743	1.858378	30.000000	0.000000	5.849767	3.771802	6.044099
1886.686000	57.829975	5.813261	5.803515	5.813261	1.857105	30.000000	0.000000	5.837598	3.747209	6.063496
1886.696000	57.829975	5.818129	5.808374	5.818129	1.858660	30.000000	0.000000	5.849767	3.747209	6.073195
1886.706000	57.643929	5.825430	5.814829	5.825430	1.857946	30.000000	0.000000	5.837598	3.661132	6.131387
1886.716000	57.416334	5.832731	5.821095	5.832731	1.856546	30.000000	0.000000	5.874104	3.624242	6.141086
1886.726000	57.276234	5.840032	5.827753	5.840032	1.856573	30.000000	0.000000	5.874104	3.611945	6.257470
1886.736000	57.182325	5.850984	5.838259	5.850984	1.858513	30.000000	0.000000	5.922777	3.562758	6.179881
1886.746000	57.046507	5.865586	5.852217	5.865586	1.860916	30.000000	0.000000	5.959283	3.452088	6.238073
1886.756000	57.046507	5.883838	5.870429	5.883838	1.866707	30.000000	0.000000	6.007957	3.439791	6.238073
1886.766000	56.921110	5.906958	5.892927	5.906958	1.871965	30.000000	0.000000	6.056630	3.402901	6.257470
1886.776000	56.921110	5.927645	5.913564	5.927645	1.878521	30.000000	0.000000	6.056630	3.402901	6.257470
1886.786000	56.758100	5.945897	5.931030	5.945897	1.881588	30.000000	0.000000	6.020125	3.366011	6.189579
1886.796000	56.438504	5.966584	5.950201	5.966584	1.882794	30.000000	0.000000	6.056630	3.243043	6.257470
1886.806000	56.344600	5.989704	5.972827	5.989704	1.888515	30.000000	0.000000	6.068799	3.206153	6.315662
1886.816000	56.231757	6.011607	5.994148	6.011607	1.893523	30.000000	0.000000	6.093136	3.193857	6.364155
1886.826000	56.096011	6.035944	6.017787	6.035944	1.898897	30.000000	0.000000	6.117473	3.181560	6.344758
1886.836000	55.979194	6.055413	6.036656	6.055413	1.903044	30.000000	0.000000	6.117473	3.107780	6.393251
1886.846000	55.854112	6.072449	6.053058	6.072449	1.906275	30.000000	0.000000	6.129641	3.083186	6.364155
1886.856000	55.776774	6.088268	6.068466	6.088268	1.909926	30.000000	0.000000	6.166146	3.033999	6.383553
1886.866000	55.655637	6.099220	6.078817	6.099220	1.911298	30.000000	0.000000	6.166146	3.033999	6.402950
1886.876000	55.538438	6.111388	6.090397	6.111388	1.913111	30.000000	0.000000	6.178315	2.972516	6.441745
1886.886000	55.354578	6.128424	6.106513	6.128424	1.915299	30.000000	0.000000	6.190483	2.874142	6.402950
1886.896000	55.269023	6.144243	6.121874	6.144243	1.918777	30.000000	0.000000	6.214820	2.911032	6.480540
1886.906000	55.170723	6.157628	6.134748	6.157628	1.921269	30.000000	0.000000	6.202652	2.874142	6.490238
1886.916000	55.106029	6.172231	6.148991	6.172231	1.924711	30.000000	0.000000	6.239157	2.849548	6.548430
1886.926000	54.945008	6.180748	6.156717	6.180748	1.924594	30.000000	0.000000	6.202652	2.800362	6.548430
1886.936000	54.886572	6.189266	6.164926	6.189266	1.926238	30.000000	0.000000	6.202652	2.824955	6.577526
1886.946000	54.886572	6.197784	6.173410	6.197784	1.928889	30.000000	0.000000	6.214820	2.788065	6.470841
1886.956000	54.593895	6.200218	6.174450	6.200218	1.924593	30.000000	0.000000	6.190483	2.763471	6.558129
1886.966000	54.503946	6.200218	6.174025	6.200218	1.923041	30.000000	0.000000	6.166146	2.714285	6.538732
1886.976000	54.378567	6.197784	6.171010	6.197784	1.920124	30.000000	0.000000	6.153978	2.689691	6.461142
1886.986000	54.236632	6.192917	6.165494	6.192917	1.916172	30.000000	0.000000	6.141809	2.640504	6.451443
1886.996000	54.142762	6.180748	6.152937	6.180748	1.910794	30.000000	0.000000	6.093136	2.615911	6.422347
1887.006000	54.040477	6.172231	6.143977	6.172231	1.906406	30.000000	0.000000	6.117473	2.591317	6.412649
1887.016000	53.875509	6.163713	6.134725	6.163713	1.900950	30.000000	0.000000	6.153978	2.542130	6.461142
1887.026000	53.712222	6.163713	6.133959	6.163713	1.898156	30.000000	0.000000	6.202652	2.542130	6.509636
1887.036000	53.712222	6.167363	6.137592	6.167363	1.899280	30.000000	0.000000	6.239157	2.468350	6.519334
1887.046000	53.360990	6.174664	6.143210	6.174664	1.895511	30.000000	0.000000	6.287831	2.419163	6.616321
1887.056000	53.204143	6.184399	6.152159	6.184399	1.895810	30.000000	0.000000	6.287831	2.419163	6.616321
1887.066000	53.083030	6.200218	6.167325	6.200218	1.898579	30.000000	0.000000	6.324336	2.406867	6.635718
1887.076000	52.961920	6.217254	6.183699	6.217254	1.901709	30.000000	0.000000	6.324336	2.369976	6.664814
1887.086000	52.863522	6.240374	6.206229	6.240374	1.907081	30.000000	0.000000	6.373010	2.283899	6.645417
1887.096000	52.738257	6.270795	6.235888	6.270795	1.914203	30.000000	0.000000	6.397347	2.259306	6.684212
1887.106000	52.675631	6.296349	6.261001	6.296349	1.920913	30.000000	0.000000	6.373010	2.259306	6.664814
1887.116000	52.585736	6.325553	6.289610	6.325553	1.928249	30.000000	0.000000	6.446021	2.197822	6.723006
1887.126000	52.585736	6.348673	6.312599	6.348673	1.935297	30.000000	0.000000	6.433852	2.185526	6.752102
1887.136000	52.464644	6.368143	6.331373	6.368143	1.939099	30.000000	0.000000	6.433852	2.136339	6.800596
1887.146000	52.192754	6.397347	6.359092	6.397347	1.943184	30.000000	0.000000	6.579873	2.111745	6.790897
1887.156000	52.036339	6.432635	6.393409	6.432635	1.951123	30.000000	0.000000	6.640716	2.087152	6.839391
1887.166000	51.760300	6.467924	6.427132	6.467924	1.956898	30.000000	0.000000	6.677221	2.013372	6.975172
1887.176000	51.597317	6.506863	6.465024	6.506863	1.965753	30.000000	0.000000	6.713726	2.001075	6.916980
1887.186000	51.597317	6.548236	6.506131	6.548236	1.978252	30.000000	0.000000	6.786737	1.988778	7.004268
1887.196000	51.484257	6.592042	6.549093	6.592042	1.989431	30.000000	0.000000	6.835411	1.951888	7.033364
1887.206000	51.301997	6.640716	6.596536	6.640716	2.000785	30.000000	0.000000	6.859748	1.951888	7.062460
1887.216000	51.208219	6.685739	6.640786	6.685739	2.012622	30.000000	0.000000	6.896253	1.951888	7.062460
1887.226000	51.208219	6.731979	6.686715	6.731979	2.026542	30.000000	0.000000	6.896253	1.939591	7.081857
1887.236000	51.061801	6.779436	6.733104	6.779436	2.038094	30.000000	0.000000	6.908422	1.927295	7.081857
1887.246000	50.976637	6.808640	6.761672	6.808640	2.045277	30.000000	0.000000	6.871916	1.902701	7.043063
1887.256000	50.892797	6.829327	6.781784	6.829327	2.049916	30.000000	0.000000	6.847579	1.951888	7.062460
1887.266000	50.775660	6.845146	6.796889	6.845146	2.052458	30.000000	0.000000	6.835411	1.865811	7.043063
1887.276000	50.662586	6.852447	6.803554	6.852447	2.052515	30.000000	0.000000	6.786737	1.853514	7.081857
1887.286000	50.596137	6.841495	6.792339	6.841495	2.047985	30.000000	0.000000	6.677221	1.841217	7.062460
1887.296000	50.431237	6.836628	6.786657	6.836628	2.043429	30.000000	0.000000	6.786737	1.828921	7.217639
1887.306000	50.346693	6.826893	6.776559	6.826893	2.038933	30.000000	0.000000	6.762400	1.804327	7.246735
1887.316000	50.346693	6.812291	6.762065	6.812291	2.034572	30.000000	0.000000	6.750232	1.779734	7.304927
1887.326000	50.095855	6.795255	6.743873	6.795255	2.024803	30.000000	0.000000	6.725895	1.755140	7.256434
1887.336000	49.926938	6.777002	6.724897	6.777002	2.016222	30.000000	0.000000	6.725895	1.742844	7.304927
1887.346000	49.765961	6.757533	6.704760	6.757533	2.007445	30.000000	0.000000	6.677221	1.718250	7.295228
1887.356000	49.694785	6.739280	6.686290	6.739280	2.000708	30.000000	0.000000	6.665053	1.718250	7.295228
1887.366000	49.483220	6.721027	6.667113	6.721027	1.991391	30.000000	0.000000	6.652884	1.705954	7.295228
1887.376000	49.378824	6.710076	6.655724	6.710076	1.986227	30.000000	0.000000	6.677221	1.730547	7.324324
1887.386000	49.225745	6.712510	6.657367	6.712510	1.984133	30.000000	0.000000	6.701558	1.656767	7.353420
1887.396000	49.063946	6.705208	6.649312	6.705208	1.979005	30.000000	0.000000	6.713726	1.644470	7.343722
1887.406000	48.880517	6.705208	6.648391	6.705208	1.975640	30.000000	0.000000	6.762400	1.705954	7.353420
1887.416000	48.714727	6.707642	6.649971	6.707642	1.973316	30.000000	0.000000	6.774569	1.607580	7.421311
1887.426000	48.714727	6.716160	6.658416	6.716160	1.975822	30.000000	0.000000	6.811074	1.582986	7.469805
1887.436000	48.553789	6.724678	6.666050	6.724678	1.975370	30.000000	0.000000	6.811074	1.533799	7.518298
1887.446000	48.300298	6.759966	6.699749	6.759966	1.981056	30.000000	0.000000	7.030106	1.521503	7.576490
1887.456000	48.154053	6.796472	6.735186	6.796472	1.989040	30.000000	0.000000	7.030106	1.521503	7.576490
1887.466000	47.997081	6.843929	6.781412	6.843929	1.999998	30.000000	0.000000	7.127454	1.484613	7.624983
1887.476000	47.997081	6.895036	6.832053	6.895036	2.014933	30.000000	0.000000	7.188296	1.460019	7.692874
1887.486000	47.997081	6.948577	6.885105	6.948577	2.030579	30.000000	0.000000	7.236970	1.410832	7.751066
1887.496000	47.519204	7.004552	6.938069	7.004552	2.037812	30.000000	0.000000	7.273475	1.398536	7.789861
1887.506000	47.400223	7.060527	6.992886	7.060527	2.051809	30.000000	0.000000	7.322149	1.373942	7.789861
1887.516000	47.274426	7.117719	7.048863	7.117719	2.065991	30.000000	0.000000	7.346486	1.386239	7.867450
1887.526000	47.148628	7.173694	7.103623	7.173694	2.079783	30.000000	0.000000	7.370823	1.349349	7.896546
1887.536000	47.071670	7.233319	7.162251	7.233319	2.095555	30.000000	0.000000	7.407328	1.361645	7.867450
1887.546000	46.937052	7.272258	7.200079	7.272258	2.104173	30.000000	0.000000	7.419496	1.324755	7.906245
1887.556000	46.882439	7.312414	7.239539	7.312414	2.114706	30.000000	0.000000	7.431665	1.275568	7.954738
1887.566000	46.643564	7.347702	7.273169	7.347702	2.120142	30.000000	0.000000	7.480339	1.287865	7.896546
1887.576000	46.522770	7.369606	7.294188	7.369606	2.124044	30.000000	0.000000	7.407328	1.287865	7.935341
1887.586000	46.324661	7.397593	7.320799	7.397593	2.128131	30.000000	0.000000	7.516844	1.275568	7.964437
1887.596000	46.222330	7.424364	7.346727	7.424364	2.133771	30.000000	0.000000	7.541181	1.263272	7.983834
1887.606000	46.100398	7.443833	7.365319	7.443833	2.136904	30.000000	0.000000	7.516844	1.226382	8.109917
1887.616000	46.025380	7.463303	7.384167	7.463303	2.140975	30.000000	0.000000	7.541181	1.214085	8.032328
1887.626000	45.910325	7.479122	7.399179	7.479122	2.143180	30.000000	0.000000	7.529012	1.177195	8.061424
1887.636000	45.804158	7.492507	7.411831	7.492507	2.144860	30.000000	0.000000	7.541181	1.164898	8.071122
1887.646000	45.665648	7.505892	7.424301	7.505892	2.145875	30.000000	0.000000	7.553349	1.164898	8.071122
1887.656000	45.417933	7.520494	7.437363	7.520494	2.145006	30.000000	0.000000	7.577686	1.152601	8.061424
1887.666000	45.283250	7.533880	7.449848	7.533880	2.146078	30.000000	0.000000	7.614191	1.140304	8.109917
1887.676000	45.283250	7.558217	7.473913	7.558217	2.153010	30.000000	0.000000	7.650697	1.128008	8.119616
1887.686000	44.994765	7.574036	7.487938	7.574036	2.151607	30.000000	0.000000	7.675034	1.091118	8.139013
1887.696000	44.843510	7.593505	7.506336	7.593505	2.154034	30.000000	0.000000	7.735876	1.103414	8.177808
1887.706000	44.690455	7.619059	7.530733	7.619059	2.158133	30.000000	0.000000	7.772381	1.041931	8.197205
1887.716000	44.605222	7.649480	7.560320	7.649480	2.164989	30.000000	0.000000	7.845392	1.041931	8.255397
1887.726000	44.470044	7.679901	7.589619	7.679901	2.170797	30.000000	0.000000	7.833223	1.017337	8.342685
1887.736000	44.098342	7.723707	7.630789	7.723707	2.175436	30.000000	0.000000	7.979245	1.017337	8.478467
1887.746000	43.835835	7.773598	7.678573	7.773598	2.183989	30.000000	0.000000	8.052255	0.968150	8.604550
1887.756000	43.515254	7.829573	7.732013	7.829573	2.192957	30.000000	0.000000	8.137435	0.955854	8.788825
1887.766000	43.186771	7.890415	7.790188	7.890415	2.203027	30.000000	0.000000	8.222614	0.943557	8.837318
1887.776000	42.909712	7.970727	7.867854	7.970727	2.219515	30.000000	0.000000	8.453814	0.918964	9.176772
1887.786000	42.798472	8.060773	7.956079	8.060773	2.242181	30.000000	0.000000	8.575499	0.882073	9.341649
1887.796000	42.608722	8.144736	8.037814	8.144736	2.261388	30.000000	0.000000	8.575499	0.882073	9.341649
1887.806000	42.470190	8.239650	8.130644	8.239650	2.284678	30.000000	0.000000	8.721520	0.869777	9.584116
1887.816000	42.318873	8.351599	8.240184	8.351599	2.312330	30.000000	0.000000	8.964889	0.820590	10.001159
1887.826000	42.318873	8.480585	8.367449	8.480585	2.348042	30.000000	0.000000	9.123079	0.795996	10.030255
1887.836000	42.011007	8.604703	8.487967	8.604703	2.375307	30.000000	0.000000	9.220426	0.808293	10.369709
1887.846000	41.526402	8.733688	8.612099	8.733688	2.399584	30.000000	0.000000	9.342111	0.746809	10.476394
1887.856000	41.355399	8.863891	8.739379	8.863891	2.431304	30.000000	0.000000	9.439458	0.734513	10.631573
1887.866000	41.257050	8.992876	8.865905	8.992876	2.464319	30.000000	0.000000	9.512469	0.734513	10.738259
1887.876000	41.166130	9.115778	8.986464	9.115778	2.495783	30.000000	0.000000	9.682827	0.685326	10.874040
1887.886000	41.029691	9.233812	9.101902	9.233812	2.524733	30.000000	0.000000	9.755838	0.673029	10.980725
1887.896000	40.785881	9.360363	9.224977	9.360363	2.553242	30.000000	0.000000	9.841017	0.648436	11.155302
1887.906000	40.671144	9.477181	9.339310	9.477181	2.582205	30.000000	0.000000	9.889691	0.648436	11.242590
1887.916000	40.574541	9.574528	9.434565	9.574528	2.606262	30.000000	0.000000	9.938365	0.599249	11.388070
1887.926000	40.574541	9.659707	9.518499	9.659707	2.629448	30.000000	0.000000	9.974870	0.611546	11.446262
1887.936000	40.481562	9.731501	9.588583	9.731501	2.646578	30.000000	0.000000	9.938365	0.623842	11.475358
1887.946000	40.379415	9.789910	9.645403	9.789910	2.659796	30.000000	0.000000	9.926196	0.574655	11.446262
1887.956000	40.273753	9.832499	9.686606	9.832499	2.668598	30.000000	0.000000	9.865354	0.574655	11.368673
1887.966000	40.193544	9.862920	9.715998	9.862920	2.674747	30.000000	0.000000	9.816680	0.586952	11.261987
1887.976000	39.993316	9.873872	9.725345	9.873872	2.672451	30.000000	0.000000	9.792343	0.574655	11.174699
1887.986000	39.907814	9.870221	9.721134	9.870221	2.669216	30.000000	0.000000	9.719333	0.599249	11.184398
1887.996000	39.907814	9.854402	9.705553	9.854402	2.664938	30.000000	0.000000	9.682827	0.574655	11.135904
1888.006000	39.695107	9.833716	9.683655	9.833716	2.653778	30.000000	0.000000	9.682827	0.562359	11.029219
1888.016000	39.569409	9.799644	9.649206	9.799644	2.641307	30.000000	0.000000	9.597648	0.574655	11.009821
1888.026000	39.498398	9.764356	9.613954	9.764356	2.629952	30.000000	0.000000	9.621985	0.562359	10.961328
1888.036000	39.340193	9.732718	9.581683	9.732718	2.617338	30.000000	0.000000	9.621985	0.562359	10.941931
1888.046000	39.210918	9.701080	9.549623	9.701080	2.605498	30.000000	0.000000	9.609817	0.525469	11.009821
1888.056000	39.023435	9.676743	9.524347	9.676743	2.594144	30.000000	0.000000	9.621985	0.525469	10.980725
1888.066000	38.824976	9.660924	9.507383	9.660924	2.584814	30.000000	0.000000	9.658490	0.500875	11.019520
1888.076000	38.615315	9.653623	9.498728	9.653623	2.577492	30.000000	0.000000	9.719333	0.513172	11.145603
1888.086000	38.409153	9.659707	9.503269	9.659707	2.573838	30.000000	0.000000	9.780175	0.488578	11.252288
1888.096000	38.228732	9.685261	9.527140	9.685261	2.576017	30.000000	0.000000	9.938365	0.463985	11.436563
1888.106000	38.070360	9.710815	9.551162	9.710815	2.578741	30.000000	0.000000	9.938365	0.463985	11.436563
1888.116000	37.848282	9.753404	9.591481	9.753404	2.584319	30.000000	0.000000	10.023544	0.476282	11.572345
1888.126000	37.704353	9.800861	9.637128	9.800861	2.593162	30.000000	0.000000	10.096554	0.451688	11.640235
1888.136000	37.521842	9.861703	9.695651	9.861703	2.604502	30.000000	0.000000	10.230407	0.414798	11.882702
1888.146000	37.387211	9.927413	9.759287	9.927413	2.618325	30.000000	0.000000	10.266913	0.414798	11.960292
1888.156000	37.278388	9.987038	9.817116	9.987038	2.631180	30.000000	0.000000	10.218239	0.427095	11.999086
1888.166000	37.181848	10.053965	9.882202	10.053965	2.646249	30.000000	0.000000	10.327755	0.427095	12.047580
1888.176000	37.105333	10.114807	9.941445	10.114807	2.660220	30.000000	0.000000	10.327755	0.414798	12.076676
1888.186000	37.105333	10.169565	9.995265	10.169565	2.674622	30.000000	0.000000	10.327755	0.402501	12.202759
1888.196000	37.105333	10.204854	10.029948	10.204854	2.683903	30.000000	0.000000	10.291250	0.377908	12.086375
1888.206000	36.952300	10.237708	10.061108	10.237708	2.688409	30.000000	0.000000	10.266913	0.402501	12.037881
1888.216000	36.582870	10.262045	10.082287	10.262045	2.684803	30.000000	0.000000	10.266913	0.377908	12.018484
1888.226000	36.484479	10.274214	10.093512	10.274214	2.685322	30.000000	0.000000	10.218239	0.365611	11.969990
1888.236000	36.383283	10.269346	10.087981	10.269346	2.681313	30.000000	0.000000	10.181734	0.365611	11.931196
1888.246000	36.257465	10.260829	10.078682	10.260829	2.675689	30.000000	0.000000	10.181734	0.365611	11.902100
1888.256000	36.084081	10.257178	10.073814	10.257178	2.670055	30.000000	0.000000	10.181734	0.365611	11.843908
1888.266000	35.892611	10.242576	10.058060	10.242576	2.661095	30.000000	0.000000	10.181734	0.341018	11.843908
1888.276000	35.670323	10.227974	10.042084	10.227974	2.651324	30.000000	0.000000	10.181734	0.390205	11.863305
1888.286000	35.443916	10.217022	10.029667	10.217022	2.642407	30.000000	0.000000	10.218239	0.328721	11.843908
1888.296000	35.245677	10.212155	10.023433	10.212155	2.635832	30.000000	0.000000	10.242576	0.316424	11.853606
1888.306000	35.245677	10.204854	10.016266	10.204854	2.633948	30.000000	0.000000	10.193902	0.316424	11.921497
1888.316000	35.043270	10.214588	10.024335	10.214588	2.631035	30.000000	0.000000	10.364260	0.291831	12.008785
1888.326000	34.932565	10.231624	10.040240	10.231624	2.632452	30.000000	0.000000	10.388597	0.304128	12.037881
1888.336000	34.784480	10.257178	10.064225	10.257178	2.635044	30.000000	0.000000	10.437271	0.291831	12.260951
1888.346000	34.631440	10.291250	10.096525	10.291250	2.639669	30.000000	0.000000	10.522450	0.291831	12.231855
1888.356000	34.449198	10.328972	10.132183	10.328972	2.644414	30.000000	0.000000	10.558955	0.279534	12.328841
1888.366000	34.313873	10.373995	10.175342	10.373995	2.652265	30.000000	0.000000	10.631966	0.279534	12.454924
1888.376000	34.026421	10.421452	10.219743	10.421452	2.656560	30.000000	0.000000	10.656303	0.291831	12.493719
1888.386000	33.900536	10.471343	10.267724	10.471343	2.665830	30.000000	0.000000	10.717145	0.254941	12.561610
1888.396000	33.900536	10.524884	10.320224	10.524884	2.679461	30.000000	0.000000	10.777987	0.254941	12.668295
1888.406000	33.758250	10.583292	10.376419	10.583292	2.690395	30.000000	0.000000	10.777987	0.242644	12.716789
1888.416000	33.517210	10.630749	10.421115	10.630749	2.695765	30.000000	0.000000	10.838830	0.304128	12.774981
1888.426000	33.376982	10.675773	10.464180	10.675773	2.703273	30.000000	0.000000	10.838830	0.304128	12.774981
1888.436000	33.376982	10.714712	10.502347	10.714712	2.713133	30.000000	0.000000	10.826661	0.267237	12.804077
1888.446000	33.223662	10.745133	10.530988	10.745133	2.716536	30.000000	0.000000	10.826661	0.254941	12.871967
1888.456000	32.906310	10.769470	10.552398	10.769470	2.713776	30.000000	0.000000	10.802324	0.230347	12.891365
1888.466000	32.783701	10.785289	10.566954	10.785289	2.714316	30.000000	0.000000	10.790156	0.230347	12.930159
1888.476000	32.610158	10.797457	10.577539	10.797457	2.712496	30.000000	0.000000	10.777987	0.205754	13.065941
1888.486000	32.444059	10.807192	10.585796	10.807192	2.710268	30.000000	0.000000	10.814493	0.218051	13.017448
1888.496000	32.367562	10.812059	10.589974	10.812059	2.709336	30.000000	0.000000	10.826661	0.193457	13.153229
1888.506000	32.152385	10.821794	10.597849	10.821794	2.705717	30.000000	0.000000	10.875335	0.193457	13.211421
1888.516000	31.980337	10.829095	10.603672	10.829095	2.702697	30.000000	0.000000	10.911840	0.181160	13.298709
1888.526000	31.980337	10.840047	10.614396	10.840047	2.705431	30.000000	0.000000	10.948346	0.193457	13.318107
1888.536000	31.838085	10.854649	10.627595	10.854649	2.705062	30.000000	0.000000	10.972683	0.205754	13.347203
1888.546000	31.702645	10.872901	10.644418	10.872901	2.705785	30.000000	0.000000	11.009188	0.181160	13.337504
1888.556000	31.702645	10.893588	10.664670	10.893588	2.710933	30.000000	0.000000	11.009188	0.168864	13.434491
1888.566000	31.322127	10.913057	10.680778	10.913057	2.704998	30.000000	0.000000	10.984851	0.181160	13.444189
1888.576000	31.128067	10.930093	10.695944	10.930093	2.703719	30.000000	0.000000	10.948346	0.144270	13.463587
1888.586000	30.906237	10.943478	10.707319	10.943478	2.700737	30.000000	0.000000	10.948346	0.193457	13.521779
1888.596000	30.764073	10.947129	10.709787	10.947129	2.697606	30.000000	0.000000	10.863167	0.156567	13.521779
1888.606000	30.608304	10.954430	10.715719	10.954430	2.694986	30.000000	0.000000	10.948346	0.168864	13.589669
1888.616000	30.453908	10.959297	10.719281	10.959297	2.691804	30.000000	0.000000	10.960514	0.156567	13.599368
1888.626000	30.364957	10.967815	10.726921	10.967815	2.691372	30.000000	0.000000	11.033525	0.156567	13.657560
1888.636000	30.154714	10.978767	10.735997	10.978767	2.688089	30.000000	0.000000	11.082199	0.082787	13.676958
1888.646000	29.981122	10.989718	10.745673	10.989718	2.684498	30.000000	0.000000	11.118704	0.156567	13.744848
1888.656000	29.737774	11.007971	10.765723	11.007971	2.664729	30.000000	0.000000	11.191715	0.181160	13.841835
1888.666000	29.512727	11.037175	10.796323	11.037175	2.649373	30.000000	0.000000	11.276894	0.144270	13.938822
1888.676000	29.313603	11.076114	10.836220	11.076114	2.638839	30.000000	0.000000	11.337736	0.156567	13.997014
1888.686000	29.152202	11.122355	10.882928	11.122355	2.633695	30.000000	0.000000	11.410747	0.131973	14.113398
1888.696000	28.983572	11.185630	10.946383	11.185630	2.631718	30.000000	0.000000	11.495926	0.144270	14.200686
1888.706000	28.892951	11.245256	11.005566	11.245256	2.636593	30.000000	0.000000	11.544600	0.119677	14.190987
1888.716000	28.724315	11.303664	11.064284	11.303664	2.633181	30.000000	0.000000	11.544600	0.119677	14.190987
1888.726000	28.724315	11.352338	11.111927	11.352338	2.644520	30.000000	0.000000	11.520263	0.156567	14.142494
1888.736000	28.420182	11.398578	11.160011	11.398578	2.624235	30.000000	0.000000	11.544600	0.131973	14.084302
1888.746000	28.343794	11.446035	11.207186	11.446035	2.627339	30.000000	0.000000	11.593273	0.144270	14.094001
1888.756000	28.208314	11.487408	11.248960	11.487408	2.622924	30.000000	0.000000	11.605442	0.107380	14.171590
1888.766000	28.072836	11.521480	11.283592	11.521480	2.616764	30.000000	0.000000	11.617610	0.131973	14.171590
1888.776000	27.929712	11.550684	11.313534	11.550684	2.608649	30.000000	0.000000	11.629779	0.033600	14.239481
1888.786000	27.684291	11.576238	11.340864	11.576238	2.589112	30.000000	0.000000	11.666284	0.144270	14.239481
1888.796000	27.548813	11.593273	11.358823	11.593273	2.578950	30.000000	0.000000	11.666284	0.095083	14.210385
1888.806000	27.429553	11.610309	11.376633	11.610309	2.570434	30.000000	0.000000	11.714958	0.095083	14.171590
1888.816000	27.303791	11.622478	11.389737	11.622478	2.560149	30.000000	0.000000	11.666284	0.082787	14.142494
1888.826000	27.168323	11.639513	11.407703	11.639513	2.549914	30.000000	0.000000	11.690621	0.082787	14.103699
1888.836000	27.023133	11.657766	11.426956	11.657766	2.538913	30.000000	0.000000	11.727126	0.082787	13.929123
1888.846000	26.894135	11.671151	11.441288	11.671151	2.528500	30.000000	0.000000	11.727126	0.045896	14.123097
1888.856000	26.725050	11.690621	11.461963	11.690621	2.515237	30.000000	0.000000	11.800137	0.070490	14.103699
1888.866000	26.543193	11.712524	11.485148	11.712524	2.501138	30.000000	0.000000	11.836642	0.082787	14.142494
1888.876000	26.361332	11.734427	11.508337	11.734427	2.486992	30.000000	0.000000	11.848811	0.095083	14.142494
1888.886000	26.232206	11.756331	11.531034	11.756331	2.478260	30.000000	0.000000	11.885316	0.095083	14.258878
1888.896000	26.096754	11.780667	11.556181	11.780667	2.469346	30.000000	0.000000	11.909653	0.070490	14.278276
1888.906000	26.096754	11.800137	11.575280	11.800137	2.473427	30.000000	0.000000	11.909653	0.082787	14.307372
1888.916000	25.951546	11.826908	11.602913	11.826908	2.463938	30.000000	0.000000	11.933990	0.082787	14.384961
1888.926000	25.562323	11.856112	11.635246	11.856112	2.429526	30.000000	0.000000	11.982664	0.021303	14.452852
1888.936000	25.407327	11.882882	11.662984	11.882882	2.418881	30.000000	0.000000	11.994832	0.095083	14.511044
1888.946000	25.268470	11.908436	11.689380	11.908436	2.409616	30.000000	0.000000	11.982664	0.058193	14.549838
1888.956000	25.144891	11.933990	11.715636	11.933990	2.401896	30.000000	0.000000	12.055674	0.070490	14.588633
1888.966000	25.068656	11.948592	11.730694	11.948592	2.396880	30.000000	0.000000	11.982664	0.070490	14.627428
1888.976000	24.926822	11.964411	11.747571	11.964411	2.385243	30.000000	0.000000	12.007001	0.045896	14.675921
1888.986000	24.752613	11.971712	11.756392	11.971712	2.368519	30.000000	0.000000	11.958327	0.058193	14.569236
1888.996000	24.564445	11.972929	11.759370	11.972929	2.349146	30.000000	0.000000	11.921821	0.033600	14.734113
1889.006000	24.564445	11.975363	11.761760	11.975363	2.349624	30.000000	0.000000	11.933990	0.045896	14.753511
1889.016000	24.446045	11.971712	11.759296	11.971712	2.336581	30.000000	0.000000	11.897485	0.058193	14.734113
1889.026000	24.248519	11.961977	11.751599	11.961977	2.314158	30.000000	0.000000	11.885316	0.045896	14.753511
1889.036000	24.127191	11.946158	11.737202	11.946158	2.298523	30.000000	0.000000	11.836642	0.033600	14.753511
1889.046000	23.962762	11.932773	11.725596	11.932773	2.278942	30.000000	0.000000	11.848811	0.045896	14.802004
1889.056000	23.962762	11.910870	11.704074	11.910870	2.274759	30.000000	0.000000	11.836642	0.058193	14.772908
1889.066000	23.567884	11.893834	11.691027	11.893834	2.230882	30.000000	0.000000	11.812305	0.045896	14.821401
1889.076000	23.567884	11.879232	11.676673	11.879232	2.228143	30.000000	0.000000	11.860979	-0.052477	14.840799
1889.086000	23.379553	11.867063	11.666466	11.867063	2.206571	30.000000	0.000000	11.836642	0.058193	14.898991
1889.096000	23.224500	11.863413	11.664319	11.863413	2.190035	30.000000	0.000000	11.885316	0.033600	14.947484
1889.106000	22.971540	11.865847	11.669060	11.865847	2.164647	30.000000	0.000000	11.958327	0.058193	15.005676
1889.116000	22.971540	11.869497	11.672650	11.869497	2.165313	30.000000	0.000000	11.933990	0.045896	15.034772
1889.126000	22.803734	11.881666	11.686175	11.881666	2.150397	30.000000	0.000000	12.007001	0.021303	15.131759
1889.136000	22.623191	11.901135	11.707001	11.901135	2.135476	30.000000	0.000000	12.031337	0.058193	15.015375
1889.146000	22.436494	11.926689	11.733873	11.926689	2.120973	30.000000	0.000000	12.104348	0.058193	15.286938
1889.156000	22.111585	11.954676	11.764429	11.954676	2.092714	30.000000	0.000000	12.116517	0.009006	15.325733
1889.166000	21.933891	11.991182	11.802008	11.991182	2.080905	30.000000	0.000000	12.177359	0.045896	15.422719
1889.176000	21.785432	12.027687	11.839323	12.027687	2.072006	30.000000	0.000000	12.226033	0.033600	15.471213
1889.186000	21.726201	12.075144	11.886591	12.075144	2.074085	30.000000	0.000000	12.311212	0.045896	15.587597
1889.196000	21.522558	12.117733	11.930426	12.117733	2.060383	30.000000	0.000000	12.311212	0.033600	15.645789
1889.206000	21.522558	12.153022	11.965169	12.153022	2.066383	30.000000	0.000000	12.311212	0.033600	15.645789
1889.216000	21.243651	12.198045	12.012126	12.198045	2.045113	30.000000	0.000000	12.384222	0.021303	15.684584
1889.226000	21.090504	12.241852	12.056711	12.241852	2.036542	30.000000	0.000000	12.445065	0.070490	15.791269
1889.236000	20.900663	12.288092	12.104050	12.288092	2.024456	30.000000	0.000000	12.493738	0.033600	15.839762
1889.246000	20.759534	12.333115	12.149739	12.333115	2.017134	30.000000	0.000000	12.554581	0.021303	15.888256
1889.256000	20.759534	12.370837	12.186900	12.370837	2.023303	30.000000	0.000000	12.493738	0.009006	15.965845
1889.266000	20.759534	12.407342	12.222863	12.407342	2.029274	30.000000	0.000000	12.542412	0.033600	15.994941
1889.276000	20.536494	12.443848	12.260960	12.443848	2.011771	30.000000	0.000000	12.591086	0.021303	15.888256
1889.286000	20.071340	12.474269	12.295384	12.474269	1.967736	30.000000	0.000000	12.615423	0.021303	16.130723
1889.296000	19.995421	12.509557	12.330893	12.509557	1.965305	30.000000	0.000000	12.664097	0.009006	16.111325
1889.306000	19.866328	12.543629	12.365717	12.543629	1.957033	30.000000	0.000000	12.651928	0.021303	16.111325
1889.316000	19.557429	12.575267	12.399873	12.575267	1.929335	30.000000	0.000000	12.700602	0.033600	16.130723
1889.326000	19.392976	12.597170	12.423050	12.597170	1.915321	30.000000	0.000000	12.664097	0.021303	16.169517
1889.336000	19.261815	12.619073	12.445911	12.619073	1.904785	30.000000	0.000000	12.712770	0.009006	16.247107
1889.346000	19.169291	12.636109	12.463603	12.636109	1.897569	30.000000	0.000000	12.724939	0.009006	16.256806
1889.356000	18.998091	12.661663	12.490456	12.661663	1.883277	30.000000	0.000000	12.749276	0.021303	16.247107
1889.366000	18.840419	12.683566	12.513582	12.683566	1.869828	30.000000	0.000000	12.761444	-0.064774	16.344094
1889.376000	18.658026	12.701819	12.533347	12.701819	1.853189	30.000000	0.000000	12.773613	0.045896	16.344094
1889.386000	18.486215	12.720072	12.553013	12.720072	1.837641	30.000000	0.000000	12.797950	0.033600	16.363491
1889.396000	18.357717	12.739541	12.573466	12.739541	1.826826	30.000000	0.000000	12.858792	0.009006	16.373190
1889.406000	18.202728	12.754143	12.589372	12.754143	1.812482	30.000000	0.000000	12.797950	0.021303	16.421683
1889.416000	18.061017	12.765095	12.601548	12.765095	1.799011	30.000000	0.000000	12.810118	0.021303	16.450779
1889.426000	17.916251	12.782131	12.619762	12.782131	1.786056	30.000000	0.000000	12.834455	0.021303	16.411984
1889.436000	17.778297	12.795516	12.634308	12.795516	1.773292	30.000000	0.000000	12.846623	0.033600	16.576862
1889.446000	17.653492	12.808901	12.648728	12.808901	1.761906	30.000000	0.000000	12.858792	-0.003290	16.586561
1889.456000	17.521358	12.819853	12.660817	12.819853	1.749395	30.000000	0.000000	12.858792	0.009006	16.547766
1889.466000	17.390260	12.832021	12.674099	12.832021	1.737148	30.000000	0.000000	12.883129	0.009006	16.635054
1889.476000	17.277098	12.840539	12.683603	12.840539	1.726298	30.000000	0.000000	12.858792	0.021303	16.654451
1889.486000	17.112713	12.849057	12.693601	12.849057	1.710013	30.000000	0.000000	12.883129	0.045896	16.712643
1889.496000	16.938272	12.849057	12.695281	12.849057	1.691539	30.000000	0.000000	12.858792	0.009006	16.693246
1889.506000	16.806071	12.858792	12.706171	12.858792	1.678824	30.000000	0.000000	12.895297	0.033600	16.770835
1889.516000	16.495721	12.866093	12.716370	12.866093	1.646952	30.000000	0.000000	12.883129	-0.027884	16.751438
1889.526000	16.425938	12.873394	12.724256	12.873394	1.640512	30.000000	0.000000	12.907466	0.033600	16.790233
1889.536000	16.313257	12.881912	12.733758	12.881912	1.629689	30.000000	0.000000	12.931802	0.021303	16.819329
1889.546000	16.167256	12.891647	12.744784	12.891647	1.615492	30.000000	0.000000	12.956139	-0.003290	16.829028
1889.556000	16.005456	12.896514	12.751149	12.896514	1.599017	30.000000	0.000000	12.907466	0.009006	16.896918
1889.566000	16.005456	12.902598	12.757164	12.902598	1.599771	30.000000	0.000000	12.943971	0.021303	16.935713
1889.576000	15.866398	12.913550	12.769328	12.913550	1.586442	30.000000	0.000000	12.968308	0.009006	16.848425
1889.586000	15.728418	12.922068	12.779075	12.922068	1.572919	30.000000	0.000000	12.968308	0.021303	16.955110
1889.596000	15.436371	12.933019	12.792707	12.933019	1.543435	30.000000	0.000000	12.968308	0.009006	17.003604
1889.606000	15.436371	12.940320	12.799929	12.940320	1.544307	30.000000	0.000000	12.968308	0.009006	17.003604
1889.616000	15.436371	12.948838	12.808354	12.948838	1.545323	30.000000	0.000000	12.968308	0.009006	17.071494
1889.626000	15.436371	12.951272	12.810762	12.951272	1.545614	30.000000	0.000000	12.931802	0.009006	17.090892
1889.636000	15.436371	12.954923	12.814373	12.954923	1.546049	30.000000	0.000000	12.968308	-0.003290	17.178180
1889.646000	15.264469	12.958573	12.819633	12.958573	1.528340	30.000000	0.000000	12.992645	-0.003290	17.333359
1889.656000	14.567493	12.967091	12.834732	12.967091	1.455951	30.000000	0.000000	12.992645	-0.015587	17.323660
1889.666000	14.445218	12.970742	12.839513	12.970742	1.443518	30.000000	0.000000	12.980476	0.021303	17.372153
1889.676000	14.159105	12.974392	12.845855	12.974392	1.413908	30.000000	0.000000	13.004813	0.009006	17.381852
1889.686000	14.021121	12.980476	12.853194	12.980476	1.400110	30.000000	0.000000	13.029150	-0.003290	17.410948
1889.696000	13.918515	12.981693	12.855375	12.981693	1.389496	30.000000	0.000000	12.980476	-0.003290	17.401249
1889.706000	13.783001	12.981693	12.856664	12.981693	1.375316	30.000000	0.000000	12.968308	0.021303	17.498236
1889.716000	13.644021	12.984127	12.860396	12.984127	1.361042	30.000000	0.000000	12.992645	0.009006	17.478839
1889.726000	13.577792	12.991428	12.868257	12.991428	1.354884	30.000000	0.000000	13.004813	-0.015587	17.575826
1889.736000	13.468089	12.996295	12.874120	12.996295	1.343926	30.000000	0.000000	13.016982	0.021303	17.604922
1889.746000	13.283201	12.998729	12.878286	12.998729	1.324870	30.000000	0.000000	13.016982	0.009006	17.711607
1889.756000	13.163324	12.999946	12.880629	12.999946	1.312487	30.000000	0.000000	13.004813	0.009006	17.701908
1889.766000	12.838602	13.002379	12.886116	13.002379	1.278902	30.000000	0.000000	13.004813	-0.003290	17.837690
1889.776000	12.640561	13.003596	12.889194	13.003596	1.258424	30.000000	0.000000	13.016982	0.021303	17.857087
1889.786000	12.463962	13.003596	12.890862	13.003596	1.240081	30.000000	0.000000	13.029150	-0.003290	17.818293
1889.796000	12.463962	13.006030	12.893274	13.006030	1.240313	30.000000	0.000000	13.004813	-0.003290	17.857087
1889.806000	12.152375	13.009681	12.899832	13.009681	1.208336	30.000000	0.000000	13.004813	-0.027884	17.731004
1889.816000	12.152375	13.013331	12.903451	13.013331	1.208675	30.000000	0.000000	13.029150	-0.015587	17.740703
1889.826000	11.978106	13.015765	12.907506	13.015765	1.190844	30.000000	0.000000	13.029150	-0.015587	17.789197
1889.836000	11.786137	13.019415	12.912933	13.019415	1.171307	30.000000	0.000000	13.053487	0.021303	17.857087
1889.846000	11.439153	13.026716	12.923435	13.026716	1.136094	30.000000	0.000000	13.089992	-0.003290	17.915279
1889.856000	11.439153	13.038885	12.935507	13.038885	1.137155	30.000000	0.000000	13.126498	-0.027884	17.934677
1889.866000	11.226794	13.049836	12.948367	13.049836	1.116160	30.000000	0.000000	13.114329	-0.015587	18.012266
1889.876000	11.047739	13.062005	12.962123	13.062005	1.098702	30.000000	0.000000	13.138666	-0.003290	17.954074
1889.886000	10.739020	13.076607	12.979511	13.076607	1.068052	30.000000	0.000000	13.175171	0.009006	17.934677
1889.896000	10.739020	13.097293	13.000044	13.097293	1.069742	30.000000	0.000000	13.211677	-0.040181	17.924978
1889.906000	10.568105	13.119197	13.023392	13.119197	1.053855	30.000000	0.000000	13.223845	-0.003290	17.934677
1889.916000	10.442776	13.136232	13.041482	13.136232	1.042258	30.000000	0.000000	13.199508	-0.003290	17.992869
1889.926000	10.051637	13.165437	13.074155	13.165437	1.004093	30.000000	0.000000	13.321193	-0.003290	17.992869
1889.936000	10.051637	13.193424	13.101949	13.193424	1.006228	30.000000	0.000000	13.333361	0.009006	18.051061
1889.946000	9.862345	13.221412	13.131527	13.221412	0.988728	30.000000	0.000000	13.369867	-0.015587	18.196541
1889.956000	9.565276	13.248182	13.160918	13.248182	0.959904	30.000000	0.000000	13.394203	-0.052477	18.196541
1889.966000	9.565276	13.281037	13.193556	13.281037	0.962285	30.000000	0.000000	13.442877	-0.027884	18.332322
1889.976000	9.432632	13.316325	13.229868	13.316325	0.951028	30.000000	0.000000	13.491551	-0.003290	18.380816
1889.986000	9.093632	13.352831	13.269350	13.352831	0.918291	30.000000	0.000000	13.540225	-0.015587	18.487501
1889.996000	8.948412	13.385686	13.303377	13.385686	0.905398	30.000000	0.000000	13.540225	-0.003290	18.603885
1890.006000	8.800333	13.418540	13.337436	13.418540	0.892147	30.000000	0.000000	13.552393	-0.015587	18.681475
1890.016000	8.633823	13.455046	13.375305	13.455046	0.877146	30.000000	0.000000	13.564562	-0.027884	18.729968
1890.026000	8.524183	13.481816	13.402961	13.481816	0.867404	30.000000	0.000000	13.588899	-0.027884	18.885147
1890.036000	8.388665	13.509804	13.432077	13.509804	0.854988	30.000000	0.000000	13.613235	0.009006	18.914243
1890.046000	8.207345	13.531707	13.455585	13.531707	0.837343	30.000000	0.000000	13.588899	-0.015587	18.972435
1890.056000	8.141015	13.543875	13.468318	13.543875	0.831134	30.000000	0.000000	13.515888	-0.003290	19.020929
1890.066000	7.998091	13.553610	13.479362	13.553610	0.816730	30.000000	0.000000	13.540225	-0.003290	19.040326
1890.076000	7.896432	13.556044	13.482752	13.556044	0.806213	30.000000	0.000000	13.515888	-0.015587	19.088819
1890.086000	7.641578	13.549960	13.479127	13.549960	0.779163	30.000000	0.000000	13.479383	-0.015587	19.166409
1890.096000	7.486120	13.541442	13.472130	13.541442	0.762426	30.000000	0.000000	13.455046	-0.077071	19.108217
1890.106000	7.365975	13.529273	13.461163	13.529273	0.749208	30.000000	0.000000	13.430709	0.009006	19.117915
1890.116000	7.223031	13.511021	13.444355	13.511021	0.733320	30.000000	0.000000	13.382035	-0.003290	19.108217
1890.126000	6.898608	13.491551	13.428042	13.491551	0.698599	30.000000	0.000000	13.394203	-0.003290	19.098518
1890.136000	6.898608	13.467214	13.403820	13.467214	0.697339	30.000000	0.000000	13.369867	-0.015587	19.098518
1890.146000	6.732845	13.444094	13.382364	13.444094	0.679031	30.000000	0.000000	13.357698	-0.015587	19.127614
1890.156000	6.587661	13.428275	13.367977	13.428275	0.663278	30.000000	0.000000	13.357698	-0.003290	19.079121
1890.166000	6.477783	13.410022	13.350833	13.410022	0.651085	30.000000	0.000000	13.357698	-0.015587	19.117915
1890.176000	6.291989	13.397854	13.340451	13.397854	0.631437	30.000000	0.000000	13.394203	-0.003290	19.185806
1890.186000	6.128976	13.389336	13.333486	13.389336	0.614346	30.000000	0.000000	13.394203	-0.015587	19.214902
1890.196000	5.958114	13.385686	13.331439	13.385686	0.596709	30.000000	0.000000	13.418540	-0.015587	19.282793
1890.206000	5.718465	13.388119	13.336088	13.388119	0.572346	30.000000	0.000000	13.455046	-0.003290	19.360382
1890.216000	5.491280	13.402721	13.352741	13.402721	0.549783	30.000000	0.000000	13.528056	-0.015587	19.418574
1890.226000	5.315209	13.422191	13.373772	13.422191	0.532609	30.000000	0.000000	13.588899	0.009006	19.505862
1890.236000	5.195025	13.448961	13.401562	13.448961	0.521392	30.000000	0.000000	13.637572	-0.015587	19.593150
1890.246000	4.812350	13.484250	13.440284	13.484250	0.483625	30.000000	0.000000	13.710583	-0.064774	19.690137
1890.256000	4.812350	13.520755	13.476670	13.520755	0.484934	30.000000	0.000000	13.722751	-0.003290	19.728932
1890.266000	4.582950	13.560911	13.518836	13.560911	0.462830	30.000000	0.000000	13.759257	-0.027884	19.835617
1890.276000	4.453091	13.601067	13.560081	13.601067	0.450849	30.000000	0.000000	13.795762	-0.015587	19.855015
1890.286000	4.317772	13.635139	13.595317	13.635139	0.438043	30.000000	0.000000	13.734920	-0.052477	19.864713
1890.296000	4.190038	13.667993	13.629273	13.667993	0.425925	30.000000	0.000000	13.747088	-0.027884	19.816220
1890.306000	4.054737	13.686246	13.648743	13.686246	0.412533	30.000000	0.000000	13.637572	-0.015587	19.690137
1890.316000	4.054737	13.686246	13.648743	13.686246	0.412533	30.000000	0.000000	13.528056	-0.015587	19.573753
1890.326000	4.054737	13.664343	13.626900	13.664343	0.411872	30.000000	0.000000	13.369867	-0.003290	19.389478
1890.336000	3.949675	13.615669	13.579339	13.615669	0.399629	30.000000	0.000000	13.150835	-0.027884	19.156710
1890.346000	3.852897	13.540225	13.504993	13.540225	0.387551	30.000000	0.000000	12.956139	-0.040181	18.865750
1890.356000	3.842568	13.430709	13.395857	13.430709	0.383372	30.000000	0.000000	12.627591	-0.003290	18.526296
1890.366000	3.834886	13.299290	13.264848	13.299290	0.378852	30.000000	0.000000	12.445065	-0.027884	18.206240
1890.376000	3.822432	13.138666	13.104753	13.138666	0.373045	30.000000	0.000000	12.189527	0.009006	17.808594
1890.386000	3.801679	12.958573	12.925309	12.958573	0.365909	30.000000	0.000000	11.933990	-0.027884	17.585524
1890.396000	3.796910	12.755360	12.722659	12.755360	0.359713	30.000000	0.000000	11.714958	-0.015587	17.100590
1890.406000	3.778896	12.525376	12.493419	12.525376	0.351530	30.000000	0.000000	11.337736	-0.027884	16.635054
1890.416000	3.717341	12.294176	12.263326	12.294176	0.339350	30.000000	0.000000	11.216052	-0.015587	16.470176
1890.426000	3.717341	12.078794	12.048485	12.078794	0.333405	30.000000	0.000000	11.216052	-0.015587	16.470176
1890.436000	3.658713	11.878015	11.848685	11.878015	0.322629	30.000000	0.000000	11.143041	-0.015587	16.227710
1890.446000	3.604849	11.686970	11.658542	11.686970	0.312709	30.000000	0.000000	11.045693	-0.027884	16.198614
1890.456000	3.324184	11.526347	11.500517	11.526347	0.284130	30.000000	0.000000	11.021356	0.009006	16.140421
1890.466000	3.127949	11.391277	11.367273	11.391277	0.264050	30.000000	0.000000	11.094367	0.009006	16.237408
1890.476000	2.946174	11.284195	11.261812	11.284195	0.246216	30.000000	0.000000	11.118704	-0.027884	16.266504
1890.486000	2.711083	11.211184	11.190736	11.211184	0.224925	30.000000	0.000000	11.203883	-0.027884	16.334395
1890.496000	2.560372	11.160077	11.140863	11.160077	0.211346	30.000000	0.000000	11.203883	-0.015587	16.402286
1890.506000	2.312258	11.158860	11.141525	11.158860	0.190686	30.000000	0.000000	11.325568	-0.040181	16.508971
1890.516000	2.312258	11.175896	11.158534	11.175896	0.190977	30.000000	0.000000	11.386410	-0.003290	16.576862
1890.526000	2.179665	11.192931	11.176548	11.192931	0.180220	30.000000	0.000000	11.386410	-0.015587	16.693246
1890.536000	2.128416	11.214835	11.198808	11.214835	0.176296	30.000000	0.000000	11.362073	-0.015587	16.644753
1890.546000	2.069911	11.241605	11.225985	11.241605	0.171826	30.000000	0.000000	11.313399	-0.040181	16.635054
1890.556000	2.006229	11.262292	11.247127	11.262292	0.166810	30.000000	0.000000	11.228220	-0.015587	16.547766
1890.566000	1.965314	11.264725	11.249869	11.264725	0.163421	30.000000	0.000000	11.118704	-0.015587	16.334395
1890.576000	1.917170	11.250123	11.235652	11.250123	0.159186	30.000000	0.000000	10.972683	0.009006	16.101627
1890.586000	1.894931	11.213618	11.199362	11.213618	0.156817	30.000000	0.000000	10.838830	0.009006	15.878557
1890.596000	1.876780	11.163727	11.149671	11.163727	0.154614	30.000000	0.000000	10.704977	0.021303	15.597296
1890.606000	1.864362	11.087066	11.073200	11.087066	0.152530	30.000000	0.000000	10.558955	-0.015587	15.413021
1890.616000	1.818826	10.997020	10.983604	10.997020	0.147574	30.000000	0.000000	10.485945	0.009006	15.238445
1890.626000	1.742188	10.898455	10.885723	10.898455	0.140053	30.000000	0.000000	10.400766	-0.015587	15.102663
1890.636000	1.630418	10.793806	10.782010	10.793806	0.129760	30.000000	0.000000	10.315587	-0.015587	14.957183
1890.646000	1.553784	10.684290	10.673165	10.684290	0.122375	30.000000	0.000000	10.218239	0.021303	14.811703
1890.656000	1.313559	10.589377	10.580063	10.589377	0.102454	30.000000	0.000000	10.279081	0.021303	14.666223
1890.666000	1.313559	10.499330	10.490095	10.499330	0.101582	30.000000	0.000000	10.218239	-0.003290	14.481948
1890.676000	1.313559	10.423886	10.414717	10.423886	0.100852	30.000000	0.000000	10.218239	0.009006	14.481948
1890.686000	1.108480	10.364260	10.356573	10.364260	0.084562	30.000000	0.000000	10.242576	-0.003290	14.326769
1890.696000	0.705423	10.319237	10.314373	10.319237	0.053508	30.000000	0.000000	10.254744	-0.003290	14.414057
1890.706000	0.705423	10.291250	10.286398	10.291250	0.053363	30.000000	0.000000	10.279081	-0.003290	14.404358
1890.716000	0.610578	10.275431	10.271239	10.275431	0.046103	30.000000	0.000000	10.327755	0.021303	14.394660
1890.726000	0.470218	10.271780	10.268555	10.271780	0.035475	30.000000	0.000000	10.364260	0.021303	14.452852
1890.736000	0.396100	10.275431	10.272714	10.275431	0.029887	30.000000	0.000000	10.352092	0.021303	14.452852
1890.746000	0.330312	10.288816	10.286548	10.288816	0.024950	30.000000	0.000000	10.352092	0.009006	14.443153
1890.756000	0.231416	10.293683	10.292094	10.293683	0.017482	30.000000	0.000000	10.327755	0.033600	14.326769
1890.766000	0.129110	10.300984	10.300097	10.300984	0.009757	30.000000	0.000000	10.291250	0.021303	14.491646
1890.776000	-0.016274	10.303418	10.303418	10.303418	0.000000	30.000000	0.000000	10.242576	0.009006	14.317070
1890.786000	-0.053862	10.297334	10.297334	10.297334	0.000000	30.000000	0.000000	10.181734	0.033600	14.229782
1890.796000	-0.102813	10.283949	10.283949	10.283949	0.000000	30.000000	0.000000	10.120891	0.009006	14.084302
1890.806000	-0.176976	10.260829	10.260829	10.260829	0.000000	30.000000	0.000000	10.047881	0.033600	14.006713
1890.816000	-0.263953	10.217022	10.217022	10.217022	0.000000	30.000000	0.000000	9.889691	-0.015587	13.754547
1890.826000	-0.263953	10.162264	10.162264	10.162264	0.000000	30.000000	0.000000	9.816680	-0.003290	13.686656
1890.836000	-0.328181	10.108723	10.108723	10.108723	0.000000	30.000000	0.000000	9.816680	-0.003290	13.686656
1890.846000	-0.423089	10.050314	10.050314	10.050314	0.000000	30.000000	0.000000	9.768006	-0.040181	13.647862
1890.856000	-0.574273	9.983388	9.983388	9.983388	0.000000	30.000000	0.000000	9.658490	0.021303	13.541176
1890.866000	-0.646440	9.917678	9.917678	9.917678	0.000000	30.000000	0.000000	9.634154	0.009006	13.502381
1890.876000	-0.646440	9.844668	9.844668	9.844668	0.000000	30.000000	0.000000	9.512469	0.009006	13.473285
1890.886000	-0.749712	9.776524	9.776524	9.776524	0.000000	30.000000	0.000000	9.500301	0.033600	13.444189
1890.896000	-0.942328	9.709598	9.709598	9.709598	0.000000	30.000000	0.000000	9.451627	0.021303	13.289010
1890.906000	-1.059995	9.647539	9.647539	9.647539	0.000000	30.000000	0.000000	9.427290	0.045896	13.512080
1890.916000	-1.059995	9.600082	9.600082	9.600082	0.000000	30.000000	0.000000	9.415121	0.009006	13.502381
1890.926000	-1.165262	9.559926	9.559926	9.559926	0.000000	30.000000	0.000000	9.415121	0.009006	13.550875
1890.936000	-1.398194	9.519770	9.519770	9.519770	0.000000	30.000000	0.000000	9.415121	0.045896	13.550875
1890.946000	-1.550977	9.486915	9.486915	9.486915	0.000000	30.000000	0.000000	9.439458	0.033600	13.541176
1890.956000	-1.550977	9.467446	9.467446	9.467446	0.000000	30.000000	0.000000	9.463795	0.033600	13.473285
1890.966000	-1.742849	9.455277	9.455277	9.455277	0.000000	30.000000	0.000000	9.512469	0.045896	13.521779
1890.976000	-2.118638	9.458928	9.458928	9.458928	0.000000	30.000000	0.000000	9.548974	0.045896	13.550875
1890.986000	-2.254750	9.469879	9.469879	9.469879	0.000000	30.000000	0.000000	9.609817	-0.027884	13.589669
1890.996000	-2.254750	9.491783	9.491783	9.491783	0.000000	30.000000	0.000000	9.670659	0.033600	13.706054
1891.006000	-2.418210	9.518553	9.518553	9.518553	0.000000	30.000000	0.000000	9.694996	0.045896	13.686656
1891.016000	-2.576990	9.547758	9.547758	9.547758	0.000000	30.000000	0.000000	9.707164	0.058193	13.657560
1891.026000	-2.630495	9.567227	9.567227	9.567227	0.000000	30.000000	0.000000	9.609817	0.058193	13.609067
1891.036000	-2.630495	9.583046	9.583046	9.583046	0.000000	30.000000	0.000000	9.573311	0.058193	13.444189
1891.046000	-2.630495	9.590347	9.590347	9.590347	0.000000	30.000000	0.000000	9.512469	0.045896	13.124133
1891.056000	-2.750137	9.585480	9.585480	9.585480	0.000000	30.000000	0.000000	9.415121	0.070490	13.075640
1891.066000	-2.791311	9.567227	9.567227	9.567227	0.000000	30.000000	0.000000	9.329942	0.045896	12.862269
1891.076000	-2.791311	9.539240	9.539240	9.539240	0.000000	30.000000	0.000000	9.269100	0.045896	12.716789
1891.086000	-2.822394	9.496650	9.496650	9.496650	0.000000	30.000000	0.000000	9.183921	0.070490	12.619802
1891.096000	-2.873960	9.443109	9.443109	9.443109	0.000000	30.000000	0.000000	9.135247	0.070490	12.513116
1891.106000	-3.001966	9.387134	9.387134	9.387134	0.000000	30.000000	0.000000	9.135247	0.058193	12.454924
1891.116000	-3.094650	9.326292	9.326292	9.326292	0.000000	30.000000	0.000000	9.098742	0.058193	12.387034
1891.126000	-3.212355	9.273968	9.273968	9.273968	0.000000	30.000000	0.000000	9.086573	0.058193	12.270649
1891.136000	-3.325750	9.225294	9.225294	9.225294	0.000000	30.000000	0.000000	9.086573	0.033600	12.222156
1891.146000	-3.371174	9.181487	9.181487	9.181487	0.000000	30.000000	0.000000	9.074405	0.070490	12.115471
1891.156000	-3.507290	9.143765	9.143765	9.143765	0.000000	30.000000	0.000000	9.037900	0.058193	12.057279
1891.166000	-3.600021	9.114561	9.114561	9.114561	0.000000	30.000000	0.000000	9.037900	0.058193	11.999086
1891.176000	-3.695025	9.087790	9.087790	9.087790	0.000000	30.000000	0.000000	9.001394	0.082787	11.950593
1891.186000	-3.843807	9.071971	9.071971	9.071971	0.000000	30.000000	0.000000	9.025731	0.070490	11.931196
1891.196000	-4.005000	9.062237	9.062237	9.062237	0.000000	30.000000	0.000000	9.037900	0.070490	11.737222
1891.206000	-4.188891	9.054935	9.054935	9.054935	0.000000	30.000000	0.000000	9.062237	0.082787	11.911798
1891.216000	-4.304353	9.053719	9.053719	9.053719	0.000000	30.000000	0.000000	9.086573	0.082787	11.863305
1891.226000	-4.370413	9.056152	9.056152	9.056152	0.000000	30.000000	0.000000	9.110910	0.070490	11.834209
1891.236000	-4.463187	9.058586	9.058586	9.058586	0.000000	30.000000	0.000000	9.110910	0.070490	11.834209
1891.246000	-4.543477	9.063453	9.063453	9.063453	0.000000	30.000000	0.000000	9.123079	0.070490	11.834209
1891.256000	-4.609532	9.067104	9.067104	9.067104	0.000000	30.000000	0.000000	9.074405	0.119677	11.766318
1891.266000	-4.694153	9.059803	9.059803	9.059803	0.000000	30.000000	0.000000	8.964889	0.107380	11.533550
1891.276000	-4.766293	9.051285	9.051285	9.051285	0.000000	30.000000	0.000000	8.916215	0.009006	11.465659
1891.286000	-4.821942	9.033032	9.033032	9.033032	0.000000	30.000000	0.000000	8.843205	0.107380	11.339576
1891.296000	-4.883697	9.009912	9.009912	9.009912	0.000000	30.000000	0.000000	8.806699	0.082787	11.194096
1891.306000	-4.927050	8.984358	8.984358	8.984358	0.000000	30.000000	0.000000	8.806699	0.095083	11.077712
1891.316000	-4.986920	8.951504	8.951504	8.951504	0.000000	30.000000	0.000000	8.758025	0.082787	11.029219
1891.326000	-5.011676	8.912565	8.912565	8.912565	0.000000	30.000000	0.000000	8.721520	0.082787	10.883739
1891.336000	-5.065242	8.871192	8.871192	8.871192	0.000000	30.000000	0.000000	8.697183	0.107380	10.641272
1891.346000	-5.125126	8.826169	8.826169	8.826169	0.000000	30.000000	0.000000	8.672846	0.131973	10.709162
1891.356000	-5.180882	8.781145	8.781145	8.781145	0.000000	30.000000	0.000000	8.624172	0.095083	10.612176
1891.366000	-5.300469	8.742206	8.742206	8.742206	0.000000	30.000000	0.000000	8.575499	0.107380	10.544285
1891.376000	-5.411939	8.700834	8.700834	8.700834	0.000000	30.000000	0.000000	8.502488	0.131973	10.437600
1891.386000	-5.411939	8.665545	8.665545	8.665545	0.000000	30.000000	0.000000	8.490320	0.119677	10.398805
1891.396000	-5.519248	8.630257	8.630257	8.630257	0.000000	30.000000	0.000000	8.453814	0.131973	10.350311
1891.406000	-5.665697	8.591318	8.591318	8.591318	0.000000	30.000000	0.000000	8.417309	0.107380	10.379407
1891.416000	-5.781249	8.553595	8.553595	8.553595	0.000000	30.000000	0.000000	8.380804	0.119677	10.282421
1891.426000	-5.907204	8.518307	8.518307	8.518307	0.000000	30.000000	0.000000	8.368635	0.082787	10.301818
1891.436000	-6.033167	8.481802	8.481802	8.481802	0.000000	30.000000	0.000000	8.332130	0.131973	10.272722
1891.446000	-6.138466	8.446513	8.446513	8.446513	0.000000	30.000000	0.000000	8.319961	0.144270	10.263023
1891.456000	-6.233502	8.414875	8.414875	8.414875	0.000000	30.000000	0.000000	8.307793	0.144270	10.185434
1891.466000	-6.297488	8.386888	8.386888	8.386888	0.000000	30.000000	0.000000	8.295624	0.144270	10.175735
1891.476000	-6.369757	8.362551	8.362551	8.362551	0.000000	30.000000	0.000000	8.259119	0.144270	10.078749
1891.486000	-6.425320	8.339431	8.339431	8.339431	0.000000	30.000000	0.000000	8.259119	0.144270	9.875076
1891.496000	-6.518248	8.317528	8.317528	8.317528	0.000000	30.000000	0.000000	8.234782	0.193457	9.933268
1891.506000	-6.559588	8.293191	8.293191	8.293191	0.000000	30.000000	0.000000	8.173940	0.156567	9.778090
1891.516000	-6.621581	8.268854	8.268854	8.268854	0.000000	30.000000	0.000000	8.137435	0.156567	9.719897
1891.526000	-6.675274	8.235999	8.235999	8.235999	0.000000	30.000000	0.000000	8.040087	0.144270	9.642308
1891.536000	-6.704368	8.198277	8.198277	8.198277	0.000000	30.000000	0.000000	7.954908	0.181160	9.555020
1891.546000	-6.789010	8.160555	8.160555	8.160555	0.000000	30.000000	0.000000	7.942739	0.168864	9.458033
1891.556000	-6.861399	8.120399	8.120399	8.120399	0.000000	30.000000	0.000000	7.906234	0.168864	9.448335
1891.566000	-6.935643	8.081460	8.081460	8.081460	0.000000	30.000000	0.000000	7.906234	0.181160	9.370745
1891.576000	-6.974993	8.043738	8.043738	8.043738	0.000000	30.000000	0.000000	7.881897	0.144270	9.380444

